Timestamp,Label,EXG Channel 0 (Fp1),EXG Channel 1 (Fp2),EXG Channel 2 (C3),EXG Channel 3 (C4),EXG Channel 4 (P7),EXG Channel 5 (P8),EXG Channel 6 (O1),EXG Channel 7 (O2),EXG Channel 8 (F7),EXG Channel 9 (F8),EXG Channel 10 (F3),EXG Channel 11 (F4),EXG Channel 12 (T7),EXG Channel 13 (T8),EXG Channel 14 (P3),EXG Channel 15 (P4)
1679627690.254707,0,-35876.047418,-30613.12802,-51650.679308,-42445.31452,-187500.022352,-33432.264141,-187500.022352,-26655.818719,0.0,0.0,0.0,0.0,0.0,0.0,0.0,0.0
1679627690.254737,0,-35884.40697,-30638.005512,-51666.191419,-42467.286285,-187500.022352,-33452.984208,-187500.022352,-26659.260888,-15467.205997,-187500.022352,187500.0,-187500.022352,-13416.098167,-30780.631993,-47317.72659,-3681.958161
1679627690.254759,0,-35891.827749,-30645.985084,-51644.689041,-42451.058918,-187500.022352,-33429.693691,-187500.022352,-26661.741932,-15475.610253,-187500.022352,187500.0,-187500.022352,-13420.188537,-30780.699048,-47327.516654,-3437.854759
1679627690.254777,0,-35900.522578,-30628.774241,-51654.255587,-42469.476756,-187500.022352,-33446.971589,-187500.022352,-26659.126778,-15458.600576,-187500.022352,187500.0,-187500.022352,-13416.858127,-30768.539699,-47315.580823,-3744.543045
1679627690.254795,0,-35881.903575,-30634.630398,-51644.55493,-42464.157041,-187500.022352,-33436.533324,-187500.022352,-26654.567022,-15476.280806,-187500.022352,187500.0,-187500.022352,-13433.264307,-30781.771932,-47325.437942,-3480.054853
1679627690.254812,0,-35892.520653,-30633.401052,-51634.966032,-42460.513706,-187500.022352,-33432.711176,-187500.022352,-26651.21426,-15467.988308,-187500.022352,187500.0,-187500.022352,-13413.818289,-30769.1879,-47305.16491,-3589.176069
1679627690.254831,0,-35893.101799,-30634.250418,-51648.310023,-42477.881012,-187500.022352,-33454.057092,-187500.022352,-26652.600068,-15456.074829,-187500.022352,187500.0,-187500.022352,-13405.637551,-30773.010048,-47303.24266,-3676.079652
1679627690.254848,0,-35894.01822,-30642.408805,-51636.150674,-42465.81107,-187500.022352,-33440.266066,-187500.022352,-26657.539804,-15476.347861,-187500.022352,187500.0,-187500.022352,-13414.779415,-30788.320993,-47307.936526,-3439.307623
1679627690.254866,0,-35864.357455,-30631.657616,-51645.136076,-42474.327084,-187500.022352,-33448.78208,-187500.022352,-26655.706961,-15457.997079,-187500.022352,187500.0,-187500.022352,-13412.901868,-30776.206347,-47301.946259,-3741.257339
1679627690.254884,0,-35899.606156,-30645.202773,-51645.538407,-42476.003465,-187500.022352,-33444.490545,-187500.022352,-26658.836205,-15463.830884,-187500.022352,187500.0,-187500.022352,-13429.911546,-30793.506598,-47315.223195,-3503.635943
1679627690.254902,0,-35901.461351,-30654.724616,-51645.024317,-42482.507823,-187500.022352,-33446.524554,-187500.022352,-26667.173406,-15463.540311,-187500.022352,187500.0,-187500.022352,-13409.794975,-30781.3696,-47308.987058,-3605.001104
1679627690.255104,0,-35890.732514,-30624.594465,-51657.585997,-42502.691448,-187500.022352,-33465.523537,-187500.022352,-26670.906147,-15471.564588,-187500.022352,187500.0,-187500.022352,-13433.443121,-30809.398688,-47322.688678,-3697.112643
1679627690.255131,0,-35880.115435,-30658.837337,-51629.288689,-42478.663323,-187500.022352,-33433.761708,-187500.022352,-26663.999458,-15467.697736,-187500.022352,187500.0,-187500.022352,-13415.002932,-30808.102287,-47320.118227,-3424.331954
1679627690.25515,0,-35886.575089,-30638.519602,-51630.339221,-42484.631239,-187500.022352,-33438.947313,-187500.022352,-26658.053894,-15449.950451,-187500.022352,187500.0,-187500.022352,-13407.448042,-30788.298641,-47303.466177,-3733.121304
1679627690.255169,0,-35877.61204,-30644.018131,-51631.210939,-42483.446596,-187500.022352,-33433.091156,-187500.022352,-26665.251156,-15468.703564,-187500.022352,187500.0,-187500.022352,-13409.303237,-30806.358851,-47312.026896,-3499.791443
1679627690.255188,0,-35898.153293,-30652.534145,-51633.759038,-42492.34259,-187500.022352,-33432.867638,-187500.022352,-26670.704981,-15475.140867,-187500.022352,187500.0,-187500.022352,-13413.125385,-30797.149932,-47313.345648,-3577.3967
1679627690.255211,0,-35891.939508,-30654.590506,-51656.758983,-42520.170512,-187500.022352,-33457.588668,-187500.022352,-26684.585414,-15484.66271,-187500.022352,187500.0,-187500.022352,-13425.307086,-30814.517237,-47327.002564,-3664.90378
1679627690.25523,0,-35913.374831,-30676.316402,-51637.402372,-42500.41157,-187500.022352,-33429.470173,-187500.022352,-26682.685516,-15506.478012,-187500.022352,187500.0,-187500.022352,-13430.73856,-30817.780592,-47332.948128,-3401.264954
1679627690.25525,0,-35885.94924,-30672.807178,-51644.063192,-42507.340611,-187500.022352,-33437.740319,-187500.022352,-26683.713696,-15488.529562,-187500.022352,187500.0,-187500.022352,-13427.966944,-30804.503656,-47321.414628,-3707.997943
1679627690.25527,0,-35884.362267,-30648.868459,-51652.333337,-42507.809998,-187500.022352,-33434.856943,-187500.022352,-26685.948871,-15499.124288,-187500.022352,187500.0,-187500.022352,-13435.588889,-30819.814601,-47333.48457,-3489.263772
1679627690.255292,0,-35874.683961,-30665.140529,-51637.581186,-42486.844061,-187500.022352,-33412.639309,-187500.022352,-26675.421199,-15483.947454,-187500.022352,187500.0,-187500.022352,-13415.226449,-30802.067316,-47317.2125,-3544.383174
1679627690.255311,0,-35891.246604,-30663.911183,-51658.703585,-42504.390181,-187500.022352,-33432.3759,-187500.022352,-26680.830321,-15486.942588,-187500.022352,187500.0,-187500.022352,-13411.113728,-30812.75145,-47312.943317,-3680.460594
1679627690.255419,0,-35882.216499,-30658.569116,-51657.474239,-42500.523329,-187500.022352,-33422.563484,-187500.022352,-26696.744763,-15492.821097,-187500.022352,187500.0,-187500.022352,-13431.677333,-30828.911761,-47322.308698,-3425.337783
1679627690.255439,0,-35887.849139,-30655.037541,-51658.368308,-42507.854701,-187500.022352,-33432.979397,-187500.022352,-26709.395851,-15480.05825,-187500.022352,187500.0,-187500.022352,-13429.419807,-30828.174153,-47319.179454,-3698.699617
1679627690.255477,0,-35887.044476,-30672.874233,-51665.498515,-42515.878977,-187500.022352,-33437.650912,-187500.022352,-26721.286979,-15472.88334,-187500.022352,187500.0,-187500.022352,-13437.131159,-30841.71931,-47330.847064,-3514.163615
1679627690.255498,0,-35875.30981,-30671.220204,-51652.422744,-42507.407666,-187500.022352,-33420.931807,-187500.022352,-26723.455098,-15487.210809,-187500.022352,187500.0,-187500.022352,-13426.111749,-30836.444299,-47330.511788,-3587.454985
1679627690.255526,0,-35881.545947,-30676.651678,-51660.491724,-42523.992661,-187500.022352,-33435.527496,-187500.022352,-26727.612523,-15488.149582,-187500.022352,187500.0,-187500.022352,-13434.091322,-30828.017691,-47327.628413,-3712.580051
1679627690.255547,0,-35880.987153,-30648.287314,-51644.197302,-42519.87994,-187500.022352,-33422.697594,-187500.022352,-26734.474508,-15495.570361,-187500.022352,187500.0,-187500.022352,-13438.673429,-30837.561886,-47337.686698,-3444.716745
1679627690.255566,0,-35883.445845,-30696.991765,-51644.264358,-42528.127733,-187500.022352,-33428.01731,-187500.022352,-26732.57461,-15486.272035,-187500.022352,187500.0,-187500.022352,-13430.73856,-30819.524028,-47330.91412,-3748.901635
1679627690.255588,0,-35888.206767,-30672.673067,-51647.728878,-42538.029556,-187500.022352,-33428.441993,-187500.022352,-26738.140194,-15507.953228,-187500.022352,187500.0,-187500.022352,-13459.147627,-30833.538572,-47346.448582,-3529.47456
1679627690.255607,0,-35873.499319,-30674.818835,-51617.688133,-42512.772085,-187500.022352,-33399.362373,-187500.022352,-26728.439537,-15498.409033,-187500.022352,187500.0,-187500.022352,-13425.329438,-30809.666909,-47327.829579,-3551.334566
1679627690.255626,0,-35863.821013,-30687.916957,-51635.055439,-42530.51937,-187500.022352,-33420.730641,-187500.022352,-26734.474508,-15502.074719,-187500.022352,187500.0,-187500.022352,-13422.133138,-30812.37147,-47321.548739,-3704.444016
1679627690.255647,0,-35884.451674,-30661.385436,-51620.347991,-42508.48055,-187500.022352,-33395.629632,-187500.022352,-26735.703854,-15501.44887,-187500.022352,187500.0,-187500.022352,-13418.623915,-30814.070203,-47317.547776,-3411.367942
1679627690.255689,0,-35872.582897,-30675.109407,-51639.861064,-42524.305585,-187500.022352,-33417.668452,-187500.022352,-26743.705779,-15489.40128,-187500.022352,187500.0,-187500.022352,-13419.495633,-30808.951653,-47313.055076,-3710.590745
1679627690.255708,0,-35869.453653,-30662.07834,-51649.695832,-42534.140353,-187500.022352,-33420.060089,-187500.022352,-26746.075063,-15514.77051,-187500.022352,187500.0,-187500.022352,-13442.339115,-30833.292703,-47329.349497,-3518.566909
1679627690.255727,0,-35861.071749,-30686.978184,-51635.83775,-42517.220082,-187500.022352,-33406.693745,-187500.022352,-26752.490014,-15500.755966,-187500.022352,187500.0,-187500.022352,-13421.373179,-30822.608569,-47312.630393,-3536.448304
1679627690.255748,0,-35888.229118,-30700.590396,-51652.668614,-42533.268634,-187500.022352,-33424.977472,-187500.022352,-26758.413226,-15505.29337,-187500.022352,187500.0,-187500.022352,-13431.431464,-30822.943845,-47314.485587,-3674.582085
1679627690.255766,0,-35869.610115,-30679.199777,-51636.35184,-42518.047096,-187500.022352,-33405.620862,-187500.022352,-26763.017686,-15509.048463,-187500.022352,187500.0,-187500.022352,-13439.947479,-30833.270351,-47316.474893,-3390.469061
1679627690.255785,0,-35865.855022,-30662.45832,-51633.133189,-42520.39403,-187500.022352,-33406.917263,-187500.022352,-26751.931221,-15494.341015,-187500.022352,187500.0,-187500.022352,-13406.64338,-30810.024537,-47286.925887,-3691.122376
1679627690.255804,0,-35859.216554,-30666.772207,-51633.088485,-42513.822617,-187500.022352,-33401.441086,-187500.022352,-26753.58525,-15501.918257,-187500.022352,187500.0,-187500.022352,-13422.311952,-30821.312168,-47293.094968,-3485.91101
1679627690.255823,0,-35839.904647,-30642.878192,-51615.765883,-42496.164739,-187500.022352,-33383.0456,-187500.022352,-26739.838927,-15485.936759,-187500.022352,187500.0,-187500.022352,-13409.973789,-30802.268482,-47272.911343,-3506.966353
1679627690.255844,0,-35868.1349,-30667.487462,-51641.157465,-42521.265748,-187500.022352,-33409.711231,-187500.022352,-26749.405473,-15477.420745,-187500.022352,187500.0,-187500.022352,-13402.687121,-30808.683432,-47265.490564,-3659.002919
1679627690.255864,0,-35868.760749,-30693.035506,-51639.257567,-42516.348364,-187500.022352,-33399.295318,-187500.022352,-26770.773741,-15484.930931,-187500.022352,187500.0,-187500.022352,-13432.124368,-30827.324787,-47285.741244,-3389.329122
1679627690.255967,0,-35880.785987,-30684.161864,-51651.863951,-42529.312376,-187500.022352,-33416.148533,-187500.022352,-26769.186767,-15487.188457,-187500.022352,187500.0,-187500.022352,-13415.829946,-30828.420023,-47280.600343,-3682.159326
1679627690.255988,0,-35876.919136,-30685.39121,-51658.792991,-42540.242379,-187500.022352,-33423.725775,-187500.022352,-26776.004049,-15502.767623,-187500.022352,187500.0,-187500.022352,-13438.829892,-30849.385959,-47291.999732,-3508.910955
1679627690.256009,0,-35858.613057,-30684.474788,-51647.862988,-42536.509637,-187500.022352,-33412.25933,-187500.022352,-26767.711552,-15493.737518,-187500.022352,187500.0,-187500.022352,-13428.905717,-30854.705674,-47285.025988,-3534.950737
1679627690.256028,0,-35873.432264,-30697.81878,-51659.776468,-42548.490172,-187500.022352,-33426.117411,-187500.022352,-26771.444293,-15481.131134,-187500.022352,187500.0,-187500.022352,-13421.328476,-30857.387883,-47282.075558,-3703.34878
1679627690.256051,0,-35889.302002,-30698.265815,-51651.931006,-42538.834219,-187500.022352,-33411.253501,-187500.022352,-26775.087628,-15499.034881,-187500.022352,187500.0,-187500.022352,-13434.270136,-30870.307192,-47291.217421,-3446.907216
1679627690.256072,0,-35872.828766,-30686.732314,-51656.9825,-42547.037309,-187500.022352,-33416.975548,-187500.022352,-26779.557977,-15487.09905,-187500.022352,187500.0,-187500.022352,-13420.680275,-30863.601668,-47279.594514,-3711.574222
1679627690.256091,0,-35879.355476,-30681.233785,-51658.949454,-42550.390071,-187500.022352,-33418.853094,-187500.022352,-26787.202273,-15499.14664,-187500.022352,187500.0,-187500.022352,-13440.707438,-30881.080732,-47294.391369,-3526.367667
1679627690.256109,0,-35857.942505,-30671.734294,-51635.234253,-42524.663213,-187500.022352,-33393.819141,-187500.022352,-26779.021535,-15480.840561,-187500.022352,187500.0,-187500.022352,-13414.46649,-30865.210994,-47276.84525,-3526.457074
1679627690.256128,0,-35850.141746,-30687.604032,-51641.135113,-42535.324995,-187500.022352,-33408.638347,-187500.022352,-26774.372372,-15474.336204,-187500.022352,187500.0,-187500.022352,-13418.623915,-30868.653163,-47269.80445,-3704.958106
1679627690.256146,0,-35854.254467,-30661.921878,-51626.852349,-42525.624338,-187500.022352,-33392.187463,-187500.022352,-26784.587119,-15472.123381,-187500.022352,187500.0,-187500.022352,-13411.761929,-30873.570546,-47272.62077,-3431.573919
1679627690.256165,0,-35860.95999,-30687.715791,-51628.841654,-42537.515466,-187500.022352,-33400.122333,-187500.022352,-26775.266442,-15465.216692,-187500.022352,187500.0,-187500.022352,-13397.769737,-30857.700808,-47264.820011,-3711.820091
1679627690.256207,0,-35857.473118,-30664.648791,-51632.753209,-42551.597065,-187500.022352,-33409.57712,-187500.022352,-26782.821331,-15485.623835,-187500.022352,187500.0,-187500.022352,-13432.303182,-30889.283823,-47289.228116,-3539.622252
1679627690.256225,0,-35851.751071,-30692.074381,-51617.308154,-42543.058699,-187500.022352,-33393.126237,-187500.022352,-26790.264462,-15483.835695,-187500.022352,187500.0,-187500.022352,-13417.081644,-30866.552099,-47281.516764,-3550.373441
1679627690.256244,0,-35848.577124,-30678.037486,-51625.913575,-42557.676739,-187500.022352,-33410.381783,-187500.022352,-26790.890311,-15498.207867,-187500.022352,187500.0,-187500.022352,-13426.51408,-30867.401465,-47292.73734,-3736.630528
1679627690.256262,0,-35877.410874,-30676.830492,-51628.126398,-42550.211257,-187500.022352,-33400.994051,-187500.022352,-26799.473381,-15510.657789,-187500.022352,187500.0,-187500.022352,-13431.587926,-30867.803796,-47301.923907,-3457.032556
1679627690.25628,0,-35856.377883,-30663.531204,-51635.435419,-42546.210295,-187500.022352,-33403.989184,-187500.022352,-26796.969986,-15510.16605,-187500.022352,187500.0,-187500.022352,-13420.09913,-30856.985552,-47298.749959,-3731.869606
1679627690.256298,0,-35840.552847,-30665.27464,-51644.152599,-42541.53878,-187500.022352,-33407.766629,-187500.022352,-26787.358735,-15495.950341,-187500.022352,187500.0,-187500.022352,-13430.492691,-30862.059398,-47305.0308,-3572.00993
1679627690.256316,0,-35834.495525,-30641.805308,-51622.873738,-42518.114152,-187500.022352,-33393.595623,-187500.022352,-26783.424828,-15485.199152,-187500.022352,187500.0,-187500.022352,-13419.987371,-30849.475366,-47296.715951,-3554.776735
1679627690.256335,0,-35838.988225,-30662.234803,-51636.597709,-42533.089821,-187500.022352,-33423.92694,-187500.022352,-26785.928224,-15472.458657,-187500.022352,187500.0,-187500.022352,-13417.394569,-30849.453014,-47291.731512,-3755.830676
1679627690.566192,0,-15974.545893,-17217.906382,-28987.485646,-22995.40764,-93750.011176,-15462.780352,-93750.011176,-19830.802957,-7746.734649,-93750.011176,93749.988824,-93750.011176,-6722.018924,-15436.964087,-23657.220442,-1744.665413
1679627690.566234,0,-31950.388187,-34423.116973,-57975.753602,-45987.373112,-187500.022352,-30921.962073,-187500.022352,-39657.157917,-32722.66331,-119979.135094,187500.0,-187500.022352,-19930.424682,-47578.280875,-52264.279397,-26347.431701
1679627690.56632,0,-31922.3591,-34405.883778,-57991.422175,-45998.101949,-187500.022352,-30939.463489,-187500.022352,-39664.913972,-32719.690528,-120295.144057,187500.0,-187500.022352,-19933.129243,-47584.807585,-52268.749746,-26282.678697
1679627690.566338,0,-31957.272525,-34410.443534,-57975.418326,-45975.794908,-187500.022352,-30913.736631,-187500.022352,-39655.682702,-32723.423269,-119314.595379,187500.0,-187500.022352,-19939.566545,-47586.573373,-52277.533982,-26291.55234
1679627690.566355,0,-31938.899391,-34404.341507,-57977.51939,-45982.500432,-187500.022352,-30920.710375,-187500.022352,-39652.888733,-32708.089973,-120211.503829,187500.0,-187500.022352,-19926.244906,-47561.897047,-52265.575798,-26335.317056
1679627690.566374,0,-31943.414443,-34408.431877,-57980.291007,-45986.367284,-187500.022352,-30923.683157,-187500.022352,-39658.901353,-32731.313435,-119396.425116,187500.0,-187500.022352,-19932.928077,-47590.842556,-52276.438746,-26249.240488
1679627690.566391,0,-31950.052911,-34410.309423,-57972.758469,-45985.853194,-187500.022352,-30920.665672,-187500.022352,-39656.55442,-32720.383432,-119464.575584,187500.0,-187500.022352,-19932.101063,-47579.465518,-52272.90717,-26342.179041
1679627690.566408,0,-31932.685606,-34403.872121,-57984.113155,-46007.087351,-187500.022352,-30943.084472,-187500.022352,-39667.976161,-32735.22499,-119769.878062,187500.0,-187500.022352,-19939.812415,-47588.495623,-52282.049034,-26288.445447
1679627690.566425,0,-31957.808966,-34434.136383,-57970.880922,-45994.838595,-187500.022352,-30923.236123,-187500.022352,-39658.275504,-32743.450432,-118788.100039,187500.0,-187500.022352,-19944.662743,-47595.469367,-52296.73413,-26297.363794
1679627690.566444,0,-31925.533047,-34389.589356,-57968.064602,-45996.045589,-187500.022352,-30925.76187,-187500.022352,-39649.021882,-32731.291083,-119677.565357,187500.0,-187500.022352,-19931.028179,-47571.463593,-52281.981979,-26339.47448
1679627690.566462,0,-31941.514545,-34406.174351,-57973.607835,-46000.694752,-187500.022352,-30931.260399,-187500.022352,-39655.816812,-32749.239534,-118879.85395,187500.0,-187500.022352,-19936.861984,-47581.186602,-52294.67777,-26234.577743
1679627690.566478,0,-31947.370702,-34410.577644,-57955.771143,-45989.362417,-187500.022352,-30921.090355,-187500.022352,-39645.982044,-32737.594275,-118912.398089,187500.0,-187500.022352,-19930.692903,-47572.335311,-52289.313351,-26326.935151
1679627690.566495,0,-31911.943187,-34394.752609,-57965.002413,-46001.275897,-187500.022352,-30937.608294,-187500.022352,-39653.492231,-32745.707958,-119245.550841,187500.0,-187500.022352,-19930.26822,-47580.828974,-52285.155926,-26274.497959
1679627690.566536,0,-31942.810946,-34401.838112,-57949.825579,-45978.410063,-187500.022352,-30912.328471,-187500.022352,-39641.019957,-32736.454336,-118261.895271,187500.0,-187500.022352,-19925.104967,-47573.005864,-52284.887705,-26270.049962
1679627690.566553,0,-31922.49321,-34386.482464,-57966.254111,-45990.904688,-187500.022352,-30931.170992,-187500.022352,-39649.848896,-32727.670101,-119139.558868,187500.0,-187500.022352,-19921.416929,-47567.261465,-52285.491203,-26320.922532
1679627690.56657,0,-31930.025748,-34403.916824,-57978.905198,-45999.174833,-187500.022352,-30936.91539,-187500.022352,-39654.25219,-32739.874153,-118355.258507,187500.0,-187500.022352,-19932.928077,-47582.483003,-52296.60002,-26235.672979
1679627690.566587,0,-31927.097669,-34395.266699,-57971.909102,-45985.115586,-187500.022352,-30921.045652,-187500.022352,-39640.528219,-32732.542781,-118384.628699,187500.0,-187500.022352,-19928.837708,-47571.463593,-52296.711778,-26323.783555
1679627690.566604,0,-31907.204617,-34393.858539,-57992.182135,-46013.144673,-187500.022352,-30952.29339,-187500.022352,-39657.292027,-32724.607912,-118752.717227,187500.0,-187500.022352,-19932.413987,-47590.775501,-52305.630124,-26279.325936
1679627690.566623,0,-31950.142318,-34419.272473,-57965.717669,-45989.094196,-187500.022352,-30920.486858,-187500.022352,-39641.31053,-32732.252208,-117732.002465,187500.0,-187500.022352,-19933.59863,-47597.123396,-52302.277363,-26268.954726
1679627690.56664,0,-31920.05687,-34406.129647,-57966.522332,-45998.280763,-187500.022352,-30937.474184,-187500.022352,-39644.819754,-32713.163818,-118600.211275,187500.0,-187500.022352,-19907.84942,-47578.482041,-52285.066519,-26319.603779
1679627690.566657,0,-31926.091841,-34420.680633,-57976.714727,-46016.899767,-187500.022352,-30950.661713,-187500.022352,-39665.539821,-32727.245418,-117770.983907,187500.0,-187500.022352,-19920.902839,-47609.081579,-52304.244316,-26239.539831
1679627690.566675,0,-31932.775013,-34416.500856,-57967.751678,-46007.7132,-187500.022352,-30935.909562,-187500.022352,-39657.269675,-32709.34167,-117776.884768,187500.0,-187500.022352,-19910.688092,-47597.995114,-52303.305543,-26344.861251
1679627690.566692,0,-31892.072486,-34403.626252,-57979.732213,-46024.901691,-187500.022352,-30956.204946,-187500.022352,-39667.998513,-32715.846028,-118148.907202,187500.0,-187500.022352,-19914.040853,-47603.918326,-52303.149081,-26291.574692
1679627690.56671,0,-31922.739079,-34413.103391,-57962.14139,-46005.053342,-187500.022352,-30934.948437,-187500.022352,-39666.746815,-32725.144354,-117153.360504,187500.0,-187500.022352,-19918.108871,-47604.812396,-52309.720494,-26295.754468
1679627690.566825,0,-31896.118152,-34394.730257,-57967.796381,-46012.272955,-187500.022352,-30944.403225,-187500.022352,-39663.282295,-32703.485513,-118044.435149,187500.0,-187500.022352,-19900.786269,-47589.546155,-52295.080101,-26354.673666
1679627690.566845,0,-31925.711861,-34428.883723,-57990.438699,-46025.885168,-187500.022352,-30949.275905,-187500.022352,-39667.059739,-32717.969444,-117309.643902,187500.0,-187500.022352,-19918.667664,-47609.640373,-52310.56986,-26266.071351
1679627690.566862,0,-31933.982007,-34418.132534,-57985.901294,-46008.271993,-187500.022352,-30932.422689,-187500.022352,-39651.860553,-32707.441772,-117304.212428,187500.0,-187500.022352,-19913.347949,-47600.453806,-52317.141273,-26357.177062
1679627691.034561,0,-31895.827579,-34412.768115,-58007.448376,-46028.187398,-187500.022352,-30961.144681,-187500.022352,-39662.097652,-32705.586577,-117737.098663,187500.0,-187500.022352,-19907.201219,-47594.240021,-52318.527081,-26306.818581
1679627691.034639,0,-31934.473745,-34413.036336,-57998.91001,-46014.418723,-187500.022352,-30949.365312,-187500.022352,-39659.50485,-32709.162856,-116777.381811,187500.0,-187500.022352,-19922.176888,-47609.3498,-52326.08197,-26312.093593
1679627691.03467,0,-31895.402896,-34381.743894,-58004.989684,-46017.905595,-187500.022352,-30964.497443,-187500.022352,-39667.976161,-32695.081257,-117699.614787,187500.0,-187500.022352,-19919.159403,-47589.255582,-52319.823482,-26386.904882
1679627691.034696,0,-31916.860571,-34419.048955,-58011.225821,-46015.424551,-187500.022352,-30968.140777,-187500.022352,-39672.714731,-32702.993775,-116989.857494,187500.0,-187500.022352,-19922.19924,-47621.062114,-52329.725305,-26306.684471
1679627691.034721,0,-31932.238571,-34404.11799,-57998.775899,-46000.53829,-187500.022352,-30951.466376,-187500.022352,-39658.700187,-32684.710048,-117014.064433,187500.0,-187500.022352,-19910.688092,-47594.977629,-52322.036305,-26398.639548
1679627691.034747,0,-31893.190073,-34392.092752,-58013.930382,-46018.442037,-187500.022352,-30968.878385,-187500.022352,-39665.875097,-32693.717801,-117446.324819,187500.0,-187500.022352,-19916.94658,-47600.677323,-52331.625203,-26339.675646
1679627691.034774,0,-31928.505829,-34426.492086,-58005.347312,-46010.350705,-187500.022352,-30950.192326,-187500.022352,-39653.089899,-32696.869397,-116466.692563,187500.0,-187500.022352,-19922.310999,-47604.544175,-52334.754447,-26331.986646
1679627691.034872,0,-31911.719669,-34396.183121,-58005.637885,-46012.608232,-187500.022352,-30956.227297,-187500.022352,-39643.858629,-32691.90731,-117340.936344,187500.0,-187500.022352,-19910.755147,-47589.836727,-52320.449331,-26387.933062
1679627691.034898,0,-31906.757582,-34397.501874,-58018.937173,-46025.214615,-187500.022352,-30963.782187,-187500.022352,-39652.97814,-32706.52535,-116639.784472,187500.0,-187500.022352,-19922.176888,-47602.599573,-52335.134427,-26294.145142
1679627691.034924,0,-31936.731271,-34412.32108,-58017.439606,-46016.340973,-187500.022352,-30950.795823,-187500.022352,-39644.216257,-32704.066659,-116610.682501,187500.0,-187500.022352,-19921.886316,-47597.637486,-52340.476494,-26382.948623
1679627691.034949,0,-31912.569036,-34411.248197,-58033.845786,-46035.317604,-187500.022352,-30969.928917,-187500.022352,-39651.748795,-32709.989871,-117056.868023,187500.0,-187500.022352,-19922.959199,-47606.958164,-52345.393878,-26348.526937
1679627691.034979,0,-31955.216164,-34426.737955,-58024.055722,-46026.019278,-187500.022352,-30950.88523,-187500.022352,-39651.972312,-32714.102592,-116039.528375,187500.0,-187500.022352,-19924.099138,-47610.75796,-52351.406497,-26344.056588
1679627691.035005,0,-31922.001472,-34406.911958,-58019.205394,-46025.639299,-187500.022352,-30951.488728,-187500.022352,-39641.511696,-32707.128847,-116900.718737,187500.0,-187500.022352,-19910.598685,-47594.463538,-52335.447351,-26408.675481
1679627691.035032,0,-31924.236646,-34407.269586,-58024.346295,-46035.205845,-187500.022352,-30954.08153,-187500.022352,-39643.925684,-32723.669138,-116211.122717,187500.0,-187500.022352,-19914.89022,-47602.55487,-52341.661136,-26312.406518
1679627691.035058,0,-31949.427062,-34404.095638,-58017.551365,-46030.646089,-187500.022352,-30945.833736,-187500.022352,-39645.378547,-32711.196865,-116147.979039,187500.0,-187500.022352,-19919.181754,-47584.74053,-52341.281157,-26400.33828
1679627691.035086,0,-31922.917893,-34393.813836,-58030.716542,-46044.347709,-187500.022352,-30964.966829,-187500.022352,-39649.267751,-32718.081202,-116627.021626,187500.0,-187500.022352,-19916.723063,-47605.818225,-52337.280194,-26362.675591
1679627691.035112,0,-31947.817737,-34426.53679,-58024.726275,-46034.691755,-187500.022352,-30949.521774,-187500.022352,-39644.64094,-32729.055909,-115628.613905,187500.0,-187500.022352,-19919.852307,-47614.580108,-52349.193674,-26356.752379
1679627691.035138,0,-31935.546629,-34420.52417,-58033.599917,-46043.34188,-187500.022352,-30965.458568,-187500.022352,-39643.210428,-32720.606949,-116530.059758,187500.0,-187500.022352,-19915.627827,-47606.689943,-52340.700011,-26424.612275
1679627691.035196,0,-31946.700149,-34410.443534,-58039.79135,-46046.739345,-187500.022352,-30965.279754,-187500.022352,-39647.792536,-32737.52722,-115822.001198,187500.0,-187500.022352,-19929.128281,-47622.134998,-52351.898235,-26324.342349
1679627691.035221,0,-31957.250173,-34410.689403,-58029.174272,-46037.195151,-187500.022352,-30950.527602,-187500.022352,-39633.777992,-32712.917949,-115800.588226,187500.0,-187500.022352,-19914.957275,-47606.287611,-52343.605738,-26419.247856
1679627691.035247,0,-31938.519411,-34413.796295,-58048.866159,-46054.964787,-187500.022352,-30973.482844,-187500.022352,-39646.56319,-32720.204618,-116321.60739,187500.0,-187500.022352,-19917.728891,-47615.63064,-52346.220892,-26375.036106
1679627691.035272,0,-31958.770091,-34418.244293,-58042.205339,-46039.407973,-187500.022352,-30951.7793,-187500.022352,-39641.466992,-32724.943188,-115330.978075,187500.0,-187500.022352,-19924.523821,-47625.979498,-52357.128544,-26368.442341
1679627691.0353,0,-31941.134565,-34419.920673,-58044.507568,-46044.995909,-187500.022352,-30960.764701,-187500.022352,-39638.762431,-32717.388298,-116222.008016,187500.0,-187500.022352,-19913.057377,-47610.310925,-52348.36666,-26433.821193
1679627691.035329,0,-31955.014998,-34422.357014,-58046.519225,-46049.242741,-187500.022352,-30962.709303,-187500.022352,-39640.952902,-32736.230819,-115591.39825,187500.0,-187500.022352,-19921.104005,-47627.991155,-52355.183942,-26342.134338
1679627691.035354,0,-31974.863347,-34424.61454,-58037.556176,-46041.576092,-187500.022352,-30959.133024,-187500.022352,-39637.823658,-32727.357176,-115541.307991,187500.0,-187500.022352,-19911.001016,-47614.133074,-52346.936148,-26426.780394
1679627691.035378,0,-31941.134565,-34421.820572,-58057.404525,-46058.384604,-187500.022352,-30982.065914,-187500.022352,-39649.848896,-32738.801269,-116028.732482,187500.0,-187500.022352,-19922.243943,-47617.865815,-52355.765087,-26383.261547
1679627691.035403,0,-31979.601917,-34437.153868,-58052.353031,-46047.409898,-187500.022352,-30959.803576,-187500.022352,-39644.037443,-32730.709938,-115002.943874,187500.0,-187500.022352,-19927.027217,-47627.186492,-52359.073145,-26375.907824
1679627691.035431,0,-31950.969333,-34403.022755,-58059.706755,-46055.948264,-187500.022352,-30970.040675,-187500.022352,-39650.005358,-32718.997624,-115888.877617,187500.0,-187500.022352,-19911.202182,-47625.152484,-52352.255863,-26437.7551
1679627691.035455,0,-31957.116062,-34400.228786,-58055.348164,-46042.783087,-187500.022352,-30960.585888,-187500.022352,-39643.053966,-32730.8664,-115222.683873,187500.0,-187500.022352,-19922.758034,-47635.74721,-52362.984701,-26344.525974
1679627691.035513,0,-31972.069379,-34420.39006,-58036.729161,-46021.951261,-187500.022352,-30945.252591,-187500.022352,-39625.373736,-32719.243493,-115104.532552,187500.0,-187500.022352,-19896.070051,-47614.803626,-52336.095552,-26410.70949
1679627691.035541,0,-31933.020882,-34396.272528,-58056.689269,-46040.614967,-187500.022352,-30968.721922,-187500.022352,-39638.851838,-32716.337766,-115590.235959,187500.0,-187500.022352,-19905.882467,-47624.034896,-52343.359869,-26381.853388
1679627691.035568,0,-31969.230708,-34413.34926,-58049.089676,-46035.51877,-187500.022352,-30955.467338,-187500.022352,-39639.343576,-32721.25515,-114537.714665,187500.0,-187500.022352,-19913.817336,-47628.035859,-52355.340404,-26361.669762
1679627691.035602,0,-31950.231725,-34399.960566,-58041.378324,-46041.844313,-187500.022352,-30963.871594,-187500.022352,-39639.90237,-32716.00249,-115363.231643,187500.0,-187500.022352,-19902.663815,-47612.613155,-52346.19854,-26430.334321
1679627691.035628,0,-31951.304609,-34398.440647,-58043.524092,-46053.109593,-187500.022352,-30970.063027,-187500.022352,-39649.044233,-32738.354234,-114668.718239,187500.0,-187500.022352,-19921.796909,-47623.476103,-52358.067317,-26348.102253
1679627691.035655,0,-31970.683571,-34392.025696,-58027.542594,-46044.593578,-187500.022352,-30950.572306,-187500.022352,-39645.512658,-32731.022862,-114511.451365,187500.0,-187500.022352,-19906.016577,-47609.372152,-52354.26752,-26442.426615
1679627691.035681,0,-31936.016016,-34403.469789,-58036.416237,-46063.212581,-187500.022352,-30970.398303,-187500.022352,-39660.264809,-32741.259961,-115004.709662,187500.0,-187500.022352,-19904.943693,-47609.595669,-52349.372488,-26397.209036
1679627691.035707,0,-31971.220013,-34415.718545,-58033.577565,-46058.675177,-187500.022352,-30957.791919,-187500.022352,-39662.924667,-32747.451394,-113926.327399,187500.0,-187500.022352,-19914.577295,-47617.351725,-52360.883637,-26394.236254
1679627691.035734,0,-31960.066493,-34410.532941,-58033.912842,-46049.510962,-187500.022352,-30959.624762,-187500.022352,-39649.781841,-32738.622455,-114757.27585,187500.0,-187500.022352,-19907.558847,-47586.618076,-52351.250035,-26476.647136
1679627691.035765,0,-31949.471766,-34405.548502,-58039.098446,-46043.006604,-187500.022352,-30960.518832,-187500.022352,-39660.220106,-32751.340598,-114107.354177,187500.0,-187500.022352,-19919.785252,-47624.839559,-52356.256825,-26377.137169
1679627691.035829,0,-31958.479519,-34405.056763,-58020.94883,-46018.218519,-187500.022352,-30942.011588,-187500.022352,-39655.190963,-32722.998586,-113996.355414,187500.0,-187500.022352,-19908.005882,-47602.823091,-52345.17036,-26460.352714
1679627691.03586,0,-31942.833298,-34396.250176,-58030.850653,-46027.96388,-187500.022352,-30960.049446,-187500.022352,-39668.020864,-32729.011205,-114582.105229,187500.0,-187500.022352,-19910.464574,-47604.633582,-52339.515369,-26409.837772
1679627691.035888,0,-31978.193757,-34415.316214,-58030.962411,-46023.694697,-187500.022352,-30952.785129,-187500.022352,-39669.898411,-32737.817793,-113580.210636,187500.0,-187500.022352,-19918.332388,-47608.276917,-52345.215064,-26395.800876
1679627691.035916,0,-31967.777844,-34417.350223,-58033.801083,-46028.120342,-187500.022352,-30959.937687,-187500.022352,-39661.158879,-32739.985912,-114426.402977,187500.0,-187500.022352,-19921.483984,-47608.120454,-52342.845779,-26470.947441
1679627691.035941,0,-31957.831318,-34401.614595,-58037.310307,-46033.529464,-187500.022352,-30966.263231,-187500.022352,-39668.065568,-32755.766243,-113835.869889,187500.0,-187500.022352,-19930.715255,-47620.302155,-52348.545474,-26374.142036
1679627691.035967,0,-31986.17333,-34423.362842,-58034.873967,-46030.623738,-187500.022352,-30962.105806,-187500.022352,-39665.562173,-32750.692397,-113733.11892,187500.0,-187500.022352,-19928.278914,-47617.105856,-52349.573654,-26470.276889
1679627691.035994,0,-31978.305516,-34433.957569,-58043.211167,-46040.302043,-187500.022352,-30975.114521,-187500.022352,-39669.272562,-32754.112214,-114304.362453,187500.0,-187500.022352,-19932.793967,-47625.443056,-52346.042078,-26432.524792
1679627691.036022,0,-32002.512455,-34432.236485,-58031.722371,-46028.500322,-187500.022352,-30955.713207,-187500.022352,-39661.158879,-32752.078206,-113328.731159,187500.0,-187500.022352,-19933.464519,-47623.274937,-52347.450238,-26408.519019
1679627691.036048,0,-31985.234557,-34415.584435,-58036.84092,-46034.177665,-187500.022352,-30962.15051,-187500.022352,-39659.951885,-32740.723519,-114244.079798,187500.0,-187500.022352,-19922.802737,-47601.459634,-52337.056677,-26482.145665
1679627691.036073,0,-32009.977938,-34423.027566,-58050.542539,-46044.325357,-187500.022352,-30974.466321,-187500.022352,-39672.915897,-32762.449415,-113705.156887,187500.0,-187500.022352,-19938.404255,-47636.015431,-52350.020689,-26388.089524
1679627691.036101,0,-32018.158676,-34426.201514,-58035.879795,-46025.348726,-187500.022352,-30950.438196,-187500.022352,-39653.805155,-32755.453319,-113606.608046,187500.0,-187500.022352,-19931.072883,-47620.168045,-52339.358907,-26463.660772
1679627691.036158,0,-32006.424011,-34421.328833,-58059.885569,-46049.198037,-187500.022352,-30979.048428,-187500.022352,-39672.602972,-32762.471767,-114259.815426,187500.0,-187500.022352,-19934.604458,-47627.119437,-52337.034325,-26433.418862
1679627691.036184,0,-32039.683406,-34449.7379,-58052.956528,-46039.676194,-187500.022352,-30966.777321,-187500.022352,-39672.088882,-32765.735121,-113276.33867,187500.0,-187500.022352,-19948.015505,-47632.014469,-52352.635843,-26421.639493
1679627691.036208,0,-32018.091621,-34437.243275,-58049.492007,-46038.245683,-187500.022352,-30970.264193,-187500.022352,-39672.558269,-32758.470805,-114173.045954,187500.0,-187500.022352,-19944.998019,-47637.334184,-52341.772895,-26503.156305
1679627691.036232,0,-32020.282092,-34439.053767,-58051.280147,-46040.480857,-187500.022352,-30971.225318,-187500.022352,-39678.302667,-32769.713732,-113658.17352,187500.0,-187500.022352,-19941.354685,-47634.540216,-52339.515369,-26411.022414
1679627691.036256,0,-32030.563895,-34447.659188,-58034.315173,-46025.125209,-187500.022352,-30951.801652,-187500.022352,-39667.842051,-32763.209374,-113603.277636,187500.0,-187500.022352,-19940.728836,-47626.582995,-52339.850645,-26494.953215
1679627691.036283,0,-31999.003231,-34431.253008,-58044.686382,-46037.329261,-187500.022352,-30973.81812,-187500.022352,-39677.475652,-32773.982915,-114321.305075,187500.0,-187500.022352,-19940.170043,-47628.237024,-52336.676697,-26458.855147
1679627691.036308,0,-32060.939915,-34441.087775,-58037.556176,-46029.50615,-187500.022352,-30954.193289,-187500.022352,-39663.818737,-32777.179215,-113442.792111,187500.0,-187500.022352,-19945.13213,-47631.098048,-52339.291851,-26437.889211
1679627691.036332,0,-32047.707683,-34438.472621,-58046.921557,-46036.435191,-187500.022352,-30965.346809,-187500.022352,-39665.897449,-32767.858537,-114467.552539,187500.0,-187500.022352,-19937.688999,-47620.726838,-52329.345325,-26514.823915
1679627691.036356,0,-32059.375293,-34458.745653,-58069.675633,-46054.048366,-187500.022352,-30986.290394,-187500.022352,-39686.975144,-32785.181139,-114120.787575,187500.0,-187500.022352,-19950.541252,-47651.393432,-52341.415267,-26428.210906
1679627691.03638,0,-32075.423846,-34456.085796,-58060.198493,-46033.194188,-187500.022352,-30968.610164,-187500.022352,-39677.498004,-32776.709828,-114130.354122,187500.0,-187500.022352,-19953.223461,-47643.503266,-52339.694183,-26515.583875
1679627691.513846,0,-32046.746558,-34434.650473,-58077.811668,-46046.269959,-187500.022352,-30991.274833,-187500.022352,-39688.159786,-32768.014999,-114949.702018,187500.0,-187500.022352,-19946.450883,-47639.189379,-52329.032401,-26484.827874
1679627691.513958,0,-32071.355828,-34453.157717,-58077.342281,-46037.664537,-187500.022352,-30980.47894,-187500.022352,-39686.148129,-32775.949869,-114095.284235,187500.0,-187500.022352,-19960.040743,-47653.248626,-52336.743753,-26451.009685
1679627691.51399,0,-32045.316046,-34435.209267,-58075.822362,-46041.93372,-187500.022352,-30988.972603,-187500.022352,-39682.683609,-32745.5962,-115059.873767,187500.0,-187500.022352,-19945.556813,-47635.724859,-52321.365752,-26532.861773
1679627691.514009,0,-32036.375348,-34440.37252,-58079.309235,-46054.964787,-187500.022352,-30997.041583,-187500.022352,-39697.480464,-32759.811909,-114527.008179,187500.0,-187500.022352,-19953.759903,-47659.037728,-52332.787494,-26436.861031
1679627691.514026,0,-32044.712549,-34449.559087,-58070.055612,-46049.890941,-187500.022352,-30983.272908,-187500.022352,-39695.357048,-32761.6224,-114263.861092,187500.0,-187500.022352,-19952.217633,-47626.51594,-52330.842892,-26514.198066
1679627691.514044,0,-32037.649398,-34438.763194,-58072.983691,-46057.222314,-187500.022352,-30998.337984,-187500.022352,-39703.470731,-32773.513529,-114750.771493,187500.0,-187500.022352,-19959.973688,-47657.786031,-52337.794285,-26483.084438
1679627691.514062,0,-32075.446197,-34467.28402,-58065.629967,-46048.952168,-187500.022352,-30979.026077,-187500.022352,-39695.491158,-32783.504758,-113587.676118,187500.0,-187500.022352,-19955.883319,-47657.830734,-52340.655308,-26459.615107
1679627691.51408,0,-32061.096378,-34448.150927,-58065.898188,-46044.995909,-187500.022352,-30980.233071,-187500.022352,-39689.74676,-32777.223918,-114227.472452,187500.0,-187500.022352,-19952.485854,-47650.924045,-52334.821503,-26537.376825
1679627691.514098,0,-32056.111938,-34453.694159,-58067.038127,-46047.365194,-187500.022352,-30980.680106,-187500.022352,-39696.251118,-32784.510587,-113544.269031,187500.0,-187500.022352,-19957.738514,-47661.831696,-52342.331689,-26445.980542
1679627691.514117,0,-32072.048732,-34463.707741,-58060.064383,-46036.904578,-187500.022352,-30969.101902,-187500.022352,-39688.763283,-32766.204508,-113201.527381,187500.0,-187500.022352,-19947.166139,-47647.571283,-52336.922567,-26521.618846
1679627691.514135,0,-32035.548334,-34440.819554,-58070.480295,-46045.465296,-187500.022352,-30992.638289,-187500.022352,-39704.700077,-32767.746778,-113680.569968,187500.0,-187500.022352,-19946.652048,-47651.102859,-52337.235491,-26482.5927
1679627691.514184,0,-32078.016648,-34468.960401,-58073.944816,-46041.956072,-187500.022352,-30982.557652,-187500.022352,-39709.438647,-32778.699133,-112489.512562,187500.0,-187500.022352,-19957.425589,-47663.597484,-52353.23934,-26461.738522
1679627691.514202,0,-32051.39572,-34445.424014,-58075.308272,-46040.346746,-187500.022352,-30980.456588,-187500.022352,-39699.983859,-32771.770092,-113092.227351,187500.0,-187500.022352,-19954.452807,-47637.736516,-52349.640709,-26546.094006
1679627691.514219,0,-32049.205249,-34434.248142,-58080.426822,-46040.25734,-187500.022352,-30980.948327,-187500.022352,-39700.76617,-32777.268622,-112428.827575,187500.0,-187500.022352,-19957.04561,-47655.774374,-52348.456067,-26450.830871
1679627691.514236,0,-32071.221718,-34447.793299,-58070.815572,-46030.288461,-187500.022352,-30972.320553,-187500.022352,-39696.586394,-32772.194776,-112042.052989,187500.0,-187500.022352,-19949.200147,-47650.499362,-52344.298642,-26525.329235
1679627691.514254,0,-32055.910773,-34454.767043,-58090.350996,-46052.751965,-187500.022352,-31001.534283,-187500.022352,-39713.149037,-32771.99361,-112485.869227,187500.0,-187500.022352,-19942.964011,-47653.67331,-52338.777761,-26502.083421
1679627691.514272,0,-32082.77757,-34452.9342,-58081.499705,-46043.85597,-187500.022352,-30982.311783,-187500.022352,-39714.557196,-32785.225843,-111206.365968,187500.0,-187500.022352,-19959.593708,-47665.072699,-52351.786477,-26471.372124
1679627691.51429,0,-32053.765005,-34440.551333,-58075.196514,-46031.718973,-187500.022352,-30980.166016,-187500.022352,-39700.609708,-32773.290011,-111779.375288,187500.0,-187500.022352,-19947.367304,-47643.3021,-52337.235491,-26559.929736
1679627691.514308,0,-32044.354921,-34422.379365,-58083.019624,-46032.791857,-187500.022352,-30987.251519,-187500.022352,-39701.704943,-32774.787578,-111078.156361,187500.0,-187500.022352,-19950.451845,-47653.80742,-52329.188863,-26453.289563
1679627691.514326,0,-32076.228508,-34431.342415,-58075.867066,-46015.692772,-187500.022352,-30961.614068,-187500.022352,-39684.449397,-32770.45134,-110553.136236,187500.0,-187500.022352,-19950.205976,-47649.314719,-52337.324898,-26523.742261
1679627691.514343,0,-32063.130386,-34417.797258,-58091.200363,-46035.384659,-187500.022352,-30987.184463,-187500.022352,-39703.157807,-32776.374552,-110893.240379,187500.0,-187500.022352,-19953.178758,-47643.771487,-52330.865244,-26489.275871
1679627691.514361,0,-32088.745485,-34430.448345,-58079.622159,-46026.108685,-187500.022352,-30970.018324,-187500.022352,-39695.938193,-32789.360915,-109570.55355,187500.0,-187500.022352,-19966.008659,-47654.276807,-52346.757334,-26464.0184
1679627691.514478,0,-32055.799014,-34421.328833,-58070.100316,-46024.767581,-187500.022352,-30972.722885,-187500.022352,-39689.702057,-32766.383322,-110109.387053,187500.0,-187500.022352,-19954.028124,-47648.17478,-52335.782628,-26547.144538
1679627691.514496,0,-32072.942802,-34414.846827,-58062.567778,-46021.213653,-187500.022352,-30968.476053,-187500.022352,-39685.678743,-32777.827415,-109401.641417,187500.0,-187500.022352,-19955.168063,-47662.792821,-52334.039191,-26437.710397
1679627691.514513,0,-32081.861148,-34414.913883,-58047.457999,-46008.674325,-187500.022352,-30951.734597,-187500.022352,-39675.866327,-32772.105369,-108891.798126,187500.0,-187500.022352,-19944.774502,-47643.570321,-52322.282174,-26501.166999
1679627691.514531,0,-32053.921468,-34403.760362,-58050.095505,-46020.856025,-187500.022352,-30971.337077,-187500.022352,-39688.226841,-32765.958639,-109279.891465,187500.0,-187500.022352,-19932.861022,-47640.217559,-52317.543604,-26473.853168
1679627691.514549,0,-32077.927241,-34406.107295,-58044.284051,-46017.503264,-187500.022352,-30955.6238,-187500.022352,-39690.730237,-32775.949869,-107990.396975,187500.0,-187500.022352,-19941.086464,-47650.298196,-52325.925508,-26447.165185
1679627691.514569,0,-32080.140064,-34395.959603,-58045.535749,-46014.686944,-187500.022352,-30959.378893,-187500.022352,-39684.985839,-32767.366799,-108454.352135,187500.0,-187500.022352,-19928.256563,-47628.684059,-52320.739904,-26531.118337
1679627691.514586,0,-32067.265459,-34386.974202,-58056.95749,-46020.364287,-187500.022352,-30960.764701,-187500.022352,-39688.71858,-32779.637907,-107671.594044,187500.0,-187500.022352,-19933.35276,-47646.788972,-52324.293831,-26440.191441
1679627691.514604,0,-32086.197387,-34394.842016,-58048.150903,-46009.546043,-187500.022352,-30943.263286,-187500.022352,-39675.39694,-32772.64181,-107037.050371,187500.0,-187500.022352,-19929.552964,-47646.76662,-52325.679639,-26509.928883
1679627691.514621,0,-32076.966116,-34386.728333,-58068.915673,-46029.75202,-187500.022352,-30964.296277,-187500.022352,-39685.164652,-32774.899337,-107326.550165,187500.0,-187500.022352,-19925.842574,-47659.037728,-52325.858453,-26489.164113
1679627691.51464,0,-32113.287701,-34406.330813,-58053.537673,-46010.395409,-187500.022352,-30942.145698,-187500.022352,-39681.253097,-32797.899282,-105827.150443,187500.0,-187500.022352,-19935.498528,-47663.172801,-52335.693221,-26444.035941
1679627691.514683,0,-32113.175942,-34380.15692,-58043.099409,-46013.211729,-187500.022352,-30931.52862,-187500.022352,-39667.976161,-32788.377439,-106094.343197,187500.0,-187500.022352,-19921.327522,-47659.462411,-52320.203462,-26523.362282
1679627691.5147,0,-32113.064183,-34384.51551,-58044.798141,-46014.463426,-187500.022352,-30934.076719,-187500.022352,-39676.045141,-32801.699078,-105391.514944,187500.0,-187500.022352,-19919.271161,-47665.430327,-52320.091703,-26437.375121
1679627691.514718,0,-32139.394538,-34396.764266,-58029.129568,-46011.602403,-187500.022352,-30914.965977,-187500.022352,-39667.640885,-32816.406526,-104684.216342,187500.0,-187500.022352,-19917.907705,-47670.45947,-52319.175281,-26478.479979
1679627691.514736,0,-32139.305131,-34377.362952,-58027.430836,-46021.705392,-187500.022352,-30918.631663,-187500.022352,-39675.575754,-32824.542561,-104536.918347,187500.0,-187500.022352,-19907.134164,-47682.395301,-52316.962459,-26464.130159
1679627691.514754,0,-32168.652972,-34413.282205,-58034.605746,-46043.833619,-187500.022352,-30919.346919,-187500.022352,-39680.493138,-32848.302465,-103392.240809,187500.0,-187500.022352,-19910.084594,-47699.874365,-52329.591194,-26460.755046
1679627691.514772,0,-32174.77735,-34406.93431,-58041.490083,-46058.809287,-187500.022352,-30915.100088,-187500.022352,-39691.467844,-32862.361713,-103241.43359,187500.0,-187500.022352,-19910.15165,-47714.492406,-52332.809846,-26502.597511
1679627691.514789,0,-32183.092199,-34412.030508,-58055.281109,-46091.599297,-187500.022352,-30912.708451,-187500.022352,-39687.846862,-32872.911736,-102415.51428,187500.0,-187500.022352,-19909.615208,-47716.481711,-52334.285061,-26466.231223
1679627691.514807,0,-32203.856969,-34421.574702,-58059.639699,-46104.228032,-187500.022352,-30903.007794,-187500.022352,-39679.822586,-32894.056486,-101712.283696,187500.0,-187500.022352,-19905.904818,-47739.481656,-52334.508578,-26500.228226
1679627691.514824,0,-32197.71024,-34416.389098,-58077.632854,-46133.553521,-187500.022352,-30916.262378,-187500.022352,-39699.73799,-32894.280004,-101531.636898,187500.0,-187500.022352,-19897.522914,-47762.012215,-52330.552319,-26492.293357
1679627691.514843,0,-32226.298121,-34429.956607,-58087.534676,-46148.864466,-187500.022352,-30917.357614,-187500.022352,-39692.071342,-32907.69105,-100426.812521,187500.0,-187500.022352,-19900.920379,-47766.95195,-52325.880805,-26483.419714
1679627691.51486,0,-32230.075566,-34427.676729,-58097.458851,-46155.502934,-187500.022352,-30922.520867,-187500.022352,-39697.994554,-32912.206103,-100207.988943,187500.0,-187500.022352,-19899.489868,-47801.083064,-52311.486281,-26530.671302
1679627691.514899,0,-32246.369987,-34418.244293,-58106.108976,-46169.919809,-187500.022352,-30930.835716,-187500.022352,-39722.402659,-32921.370318,-99390.071558,187500.0,-187500.022352,-19895.444202,-47798.780835,-52295.057749,-26505.324424
1679627691.514917,0,-32277.505967,-34449.179107,-58107.539488,-46179.173431,-187500.022352,-30932.646207,-187500.022352,-39735.456078,-32915.380051,-98635.163741,187500.0,-187500.022352,-19894.281911,-47806.603945,-52281.512592,-26552.844233
1679627691.514935,0,-32306.943215,-34477.297601,-58098.397624,-46197.524213,-187500.022352,-30941.296332,-187500.022352,-39751.571685,-32955.233211,-98236.207454,187500.0,-187500.022352,-19899.422812,-47834.47657,-52266.291054,-26557.180471
1679627691.514952,0,-32345.410567,-34513.485076,-58090.261589,-46214.243318,-187500.022352,-30931.349806,-187500.022352,-39765.47447,-32955.523784,-97057.152934,187500.0,-187500.022352,-19884.648309,-47855.017824,-52242.419391,-26567.551681
1679627691.51497,0,-32385.263727,-34550.521916,-58092.362653,-46251.213104,-187500.022352,-30933.517925,-187500.022352,-39793.14593,-32970.432397,-96648.339528,187500.0,-187500.022352,-19880.222664,-47863.757356,-52227.644888,-26604.208541
1679627691.514987,0,-32426.122716,-34593.638431,-58097.57061,-46286.730026,-187500.022352,-30940.514021,-187500.022352,-39847.617131,-32985.743342,-95689.69556,187500.0,-187500.022352,-19869.449123,-47887.65137,-52228.31544,-26587.601195
1679627691.515004,0,-32480.035124,-34630.474106,-58095.894229,-46305.214918,-187500.022352,-30939.798765,-187500.022352,-39898.824978,-32995.868682,-94830.852131,187500.0,-187500.022352,-19862.005992,-47901.062417,-52223.532167,-26624.191001
1679627691.515022,0,-32512.065174,-34677.435121,-58123.07395,-46359.68612,-187500.022352,-30956.584925,-187500.022352,-39967.645999,-33004.518807,-94401.743341,187500.0,-187500.022352,-19856.999201,-47923.302403,-52231.556443,-26638.78669
1679627691.515039,0,-32561.596639,-34709.889854,-58130.651192,-46379.065082,-187500.022352,-30959.244783,-187500.022352,-40016.015174,-33016.164066,-93196.269059,187500.0,-187500.022352,-19860.709591,-47970.352825,-52243.268757,-26646.051007
1679627691.515056,0,-32582.204948,-34728.061822,-58137.580232,-46391.827928,-187500.022352,-30954.886193,-187500.022352,-40056.851811,-33005.971671,-92726.927129,187500.0,-187500.022352,-19847.432655,-47981.394587,-52241.63708,-26672.806045
1679627691.515074,0,-32570.135006,-34735.97434,-58148.979622,-46385.882364,-187500.022352,-30953.366274,-187500.022352,-40090.938221,-32982.301173,-91735.247282,187500.0,-187500.022352,-19835.563878,-47992.749273,-52240.452437,-26652.398902
1679627691.515111,0,-32588.843416,-34752.536983,-58157.786209,-46374.639437,-187500.022352,-30952.628666,-187500.022352,-40099.11896,-32955.836708,-90807.94046,187500.0,-187500.022352,-19826.958457,-48017.649116,-52245.258063,-26682.327888
1679627691.515129,0,-32571.498462,-34763.914021,-58175.913474,-46378.819213,-187500.022352,-30981.998859,-187500.022352,-40103.499902,-32929.908684,-90293.425655,187500.0,-187500.022352,-19823.851564,-48059.960968,-52250.667185,-26681.634984
1679627691.515147,0,-32577.175805,-34776.118073,-58186.396442,-46381.076739,-187500.022352,-30994.918167,-187500.022352,-40088.010143,-32915.737678,-89030.283872,187500.0,-187500.022352,-19824.276248,-48084.592591,-52276.371691,-26700.276339
1679627691.515165,0,-32548.610276,-34752.157003,-58180.517933,-46382.75312,-187500.022352,-30996.527493,-187500.022352,-40044.200724,-32903.71244,-88499.854624,187500.0,-187500.022352,-19812.206306,-48078.892896,-52280.015025,-26721.04111
1679627691.515182,0,-32534.729843,-34739.930599,-58186.128221,-46396.968829,-187500.022352,-31021.673205,-187500.022352,-40043.172543,-32910.932053,-87510.879339,187500.0,-187500.022352,-19817.39191,-48121.048286,-52292.464947,-26715.341415
1679627691.515201,0,-32517.049613,-34707.431162,-58157.830913,-46391.112672,-187500.022352,-30989.95608,-187500.022352,-40030.409697,-32909.85917,-86537.304406,187500.0,-187500.022352,-19798.124707,-48119.550719,-52294.834232,-26735.279171
1679627691.995507,0,-32482.80674,-34678.95504,-58143.05641,-46409.485806,-187500.022352,-30991.006612,-187500.022352,-40031.795505,-32913.144876,-85990.11135,187500.0,-187500.022352,-19784.288977,-48097.958934,-52281.892572,-26723.320988
1679627691.995581,0,-32475.453016,-34685.951136,-58137.42377,-46432.373992,-187500.022352,-30983.474074,-187500.022352,-40025.514665,-32909.99328,-84727.64012,187500.0,-187500.022352,-19766.876968,-48076.970646,-52266.961606,-26722.181049
1679627691.99563,0,-32461.952563,-34677.792749,-58155.148703,-46450.814182,-187500.022352,-31002.51776,-187500.022352,-40044.915979,-32908.942748,-84218.355622,187500.0,-187500.022352,-19762.764247,-48097.40014,-52266.939255,-26759.016724
1679627691.995671,0,-32446.552211,-34638.85601,-58176.092288,-46437.939577,-187500.022352,-31004.328251,-187500.022352,-40055.17543,-32897.94569,-83213.01886,187500.0,-187500.022352,-19762.585433,-48101.065827,-52262.603016,-26746.745616
1679627691.995816,0,-32448.675626,-34634.184496,-58195.426547,-46415.140798,-187500.022352,-30998.941481,-187500.022352,-40058.952875,-32872.040018,-82333.745937,187500.0,-187500.022352,-19752.281279,-48091.007542,-52252.052993,-26768.180939
1679627691.995846,0,-32429.810754,-34606.31187,-58206.982399,-46396.164166,-187500.022352,-30999.947309,-187500.022352,-40051.643855,-32859.724207,-81941.986912,187500.0,-187500.022352,-19752.057761,-48110.006524,-52252.880007,-26754.725189
1679627691.995875,0,-32434.996359,-34617.107763,-58219.857004,-46382.574306,-187500.022352,-31002.160132,-187500.022352,-40032.510761,-32843.943875,-80932.068042,187500.0,-187500.022352,-19752.437741,-48125.898615,-52258.691461,-26762.749465
1679627691.995903,0,-32428.648463,-34587.692867,-58218.873527,-46363.172992,-187500.022352,-30998.405039,-187500.022352,-39991.249441,-32828.074137,-80649.318474,187500.0,-187500.022352,-19761.669011,-48125.205711,-52267.073365,-26774.73
1679627691.995931,0,-32435.376338,-34606.423629,-58219.879355,-46353.53939,-187500.022352,-31002.674222,-187500.022352,-39972.7869,-32815.601863,-79849.282485,187500.0,-187500.022352,-19755.991668,-48102.272821,-52272.616598,-26730.808822
1679627691.995961,0,-32459.650333,-34624.75206,-58219.052341,-46346.096259,-187500.022352,-31006.541074,-187500.022352,-39943.103784,-32813.187875,-79053.739197,187500.0,-187500.022352,-19765.446456,-48101.691675,-52280.551467,-26743.482261
1679627691.995994,0,-32448.72033,-34623.947397,-58222.315696,-46342.855256,-187500.022352,-31016.778173,-187500.022352,-39899.741399,-32806.147075,-78627.49143,187500.0,-187500.022352,-19779.751573,-48103.211594,-52287.279342,-26734.005121
1679627691.996024,0,-32450.553173,-34623.656824,-58216.86187,-46326.784352,-187500.022352,-31013.91715,-187500.022352,-39857.675416,-32791.21611,-77527.249161,187500.0,-187500.022352,-19785.74184,-48082.357416,-52287.078176,-26727.679578
1679627691.996051,0,-32461.214955,-34610.938681,-58211.765672,-46299.068189,-187500.022352,-31017.940464,-187500.022352,-39813.240148,-32776.553366,-77128.896371,187500.0,-187500.022352,-19792.268549,-48092.259239,-52281.110261,-26746.343284
1679627691.99608,0,-32451.424891,-34615.453734,-58202.690864,-46268.312188,-187500.022352,-31010.363222,-187500.022352,-39766.212078,-32762.114139,-76312.610663,187500.0,-187500.022352,-19811.759271,-48084.413777,-52272.840115,-26714.715566
1679627691.996108,0,-32463.226612,-34612.905635,-58198.220515,-46226.804999,-187500.022352,-31001.86956,-187500.022352,-39723.900226,-32753.084034,-75598.919463,187500.0,-187500.022352,-19800.203419,-48074.064919,-52251.337737,-26730.115918
1679627691.996183,0,-32435.108117,-34591.604423,-58211.966838,-46191.824519,-187500.022352,-31013.604225,-187500.022352,-39697.905147,-32748.568982,-75205.729926,187500.0,-187500.022352,-19811.11107,-48093.890917,-52242.888778,-26713.910903
1679627691.996212,0,-32462.712522,-34592.029106,-58225.534347,-46156.508762,-187500.022352,-31012.441935,-187500.022352,-39679.487309,-32741.908162,-74161.165853,187500.0,-187500.022352,-19816.609599,-48095.232021,-52231.847016,-26698.778772
1679627691.996241,0,-32464.880641,-34593.61608,-58229.222385,-46132.234768,-187500.022352,-31009.245635,-187500.022352,-39669.451376,-32738.845973,-73737.980275,187500.0,-187500.022352,-19828.679541,-48090.828728,-52215.463187,-26683.087848
1679627691.996271,0,-32470.155653,-34589.816283,-58223.701504,-46108.586622,-187500.022352,-31013.291301,-187500.022352,-39658.811946,-32743.495136,-72904.819,187500.0,-187500.022352,-19836.99439,-48086.738358,-52195.436024,-26647.347408
1679627691.996298,0,-32487.768827,-34589.212786,-58207.585896,-46084.558497,-187500.022352,-31013.313653,-187500.022352,-39648.686606,-32744.992703,-72151.967544,187500.0,-187500.022352,-19844.415169,-48086.134861,-52176.682911,-26645.022827
1679627691.996326,0,-32481.510339,-34572.22546,-58193.437242,-46070.700415,-187500.022352,-31015.235903,-187500.022352,-39650.631207,-32749.038368,-71763.985963,187500.0,-187500.022352,-19844.281059,-48071.650931,-52149.793762,-26623.162821
1679627691.996354,0,-32500.35286,-34581.009696,-58182.641349,-46059.435136,-187500.022352,-31005.535246,-187500.022352,-39645.311492,-32762.538822,-70700.311148,187500.0,-187500.022352,-19857.468588,-48052.786059,-52142.372983,-26613.395108
1679627691.996382,0,-32510.61231,-34603.249681,-58179.95914,-46060.664482,-187500.022352,-31007.368089,-187500.022352,-39649.401861,-32769.870194,-70253.767997,187500.0,-187500.022352,-19864.129408,-48023.505273,-52137.030916,-26618.446603
1679627691.996411,0,-32518.211903,-34611.586882,-58185.524724,-46064.553686,-187500.022352,-31005.669356,-187500.022352,-39656.085033,-32782.744799,-69438.175194,187500.0,-187500.022352,-19874.522969,-48017.202081,-52145.099896,-26600.073469
1679627691.996439,0,-32523.442212,-34602.601481,-58183.356605,-46045.442944,-187500.022352,-30989.821969,-187500.022352,-39655.347425,-32776.933345,-68659.418065,187500.0,-187500.022352,-19877.383992,-47995.923221,-52152.297157,-26638.071434
1679627691.996468,0,-32505.605519,-34598.421705,-58189.793907,-46023.60529,-187500.022352,-30982.691763,-187500.022352,-39650.161821,-32757.375569,-68304.718233,187500.0,-187500.022352,-19877.361641,-47976.901886,-52147.826808,-26620.391204
1679627691.996534,0,-32529.410127,-34589.01162,-58198.220515,-45994.056284,-187500.022352,-30969.660696,-187500.022352,-39629.888788,-32739.114194,-67372.784599,187500.0,-187500.022352,-19875.417039,-47971.492764,-52142.574148,-26620.324149
1679627691.996562,0,-32528.404299,-34585.569452,-58208.815242,-45979.035911,-187500.022352,-30967.40317,-187500.022352,-39606.218291,-32736.700205,-67141.801672,187500.0,-187500.022352,-19873.293623,-47976.70072,-52134.572224,-26648.085016
1679627691.996588,0,-32513.741554,-34582.171986,-58213.330294,-45971.503374,-187500.022352,-30973.30403,-187500.022352,-39591.019105,-32730.776993,-66530.9732,187500.0,-187500.022352,-19877.562806,-47982.802747,-52133.901672,-26620.994702
1679627691.996616,0,-32519.754174,-34576.96403,-58197.080576,-45953.353757,-187500.022352,-30958.149547,-187500.022352,-39576.468119,-32725.367871,-65904.565561,187500.0,-187500.022352,-19876.914606,-47964.362557,-52124.558642,-26636.439757
1679627691.996646,0,-32507.036031,-34575.622925,-58188.67632,-45963.948484,-187500.022352,-30955.601448,-187500.022352,-39582.994829,-32735.001473,-65607.689692,187500.0,-187500.022352,-19890.16919,-47971.31395,-52115.394427,-26611.405803
1679627691.996678,0,-32526.705566,-34581.747303,-58169.319709,-45963.76967,-187500.022352,-30946.593695,-187500.022352,-39583.687733,-32761.398883,-64605.236304,187500.0,-187500.022352,-19889.766859,-47965.100165,-52111.549927,-26610.869361
1679627691.996706,0,-32524.671558,-34596.722972,-58166.726907,-45983.193336,-187500.022352,-30955.646152,-187500.022352,-39603.066695,-32775.681648,-64157.10618,187500.0,-187500.022352,-19892.046737,-47944.760078,-52106.07375,-26634.383396
1679627691.996734,0,-32524.649206,-34565.609344,-58157.16036,-45991.888165,-187500.022352,-30948.493594,-187500.022352,-39626.670137,-32773.088845,-63246.250242,187500.0,-187500.022352,-19905.234266,-47936.132304,-52109.560622,-26621.240571
1679627691.996766,0,-32524.850371,-34594.756018,-58152.690012,-45994.458615,-187500.022352,-30932.892076,-187500.022352,-39644.685643,-32765.84688,-62358.662469,187500.0,-187500.022352,-19887.889312,-47899.408388,-52092.863869,-26633.668141
1679627691.996797,0,-32518.636587,-34584.027181,-58180.137954,-46015.335144,-187500.022352,-30950.23703,-187500.022352,-39672.468862,-32773.781749,-61961.874302,187500.0,-187500.022352,-19901.032138,-47894.222783,-52107.370151,-26636.819737
1679627691.996859,0,-32526.392642,-34579.378018,-58181.836686,-45988.133071,-187500.022352,-30936.155431,-187500.022352,-39661.315341,-32757.934363,-60925.91565,187500.0,-187500.022352,-19903.669644,-47889.43951,-52100.284648,-26627.3873
1679627691.996888,0,-32524.492744,-34569.252678,-58197.996998,-45967.792984,-187500.022352,-30939.776413,-187500.022352,-39646.272617,-32736.007301,-60602.351797,187500.0,-187500.022352,-19894.77365,-47866.976007,-52081.59859,-26648.241478
1679627691.996916,0,-32524.291578,-34564.40235,-58217.979457,-45956.572408,-187500.022352,-30946.973675,-187500.022352,-39650.564152,-32731.939284,-59959.225054,187500.0,-187500.022352,-19907.71531,-47896.279144,-52083.722005,-26621.799364
1679627691.996945,0,-32551.784224,-34579.579184,-58211.74332,-45929.571501,-187500.022352,-30937.742405,-187500.022352,-39628.860608,-32711.353327,-59346.407276,187500.0,-187500.022352,-19908.609379,-47896.949696,-52067.427584,-26630.829469
1679627691.996975,0,-32545.369273,-34569.185623,-58217.554774,-45925.391725,-187500.022352,-30945.409053,-187500.022352,-39628.570036,-32716.00249,-59094.68193,187500.0,-187500.022352,-19909.034063,-47901.129472,-52057.436354,-26614.69151
1679627691.997004,0,-32551.560706,-34561.541326,-58209.374036,-45913.210024,-187500.022352,-30930.142812,-187500.022352,-39631.743983,-32730.419365,-58251.909405,187500.0,-187500.022352,-19897.567618,-47913.557042,-52047.825104,-26608.321262
1679627691.997034,0,-32549.973732,-34556.46748,-58193.124317,-45909.611393,-187500.022352,-30930.612198,-187500.022352,-39639.276521,-32739.918857,-57982.995568,187500.0,-187500.022352,-19898.461687,-47908.885528,-52031.731848,-26620.07828
1679627691.997063,0,-32544.855183,-34555.640466,-58177.612207,-45911.466588,-187500.022352,-30929.472259,-187500.022352,-39652.374643,-32759.119005,-57409.51686,187500.0,-187500.022352,-19903.647292,-47913.40058,-52027.753237,-26603.359175
1679627691.997092,0,-32557.528622,-34575.488815,-58167.129239,-45913.768818,-187500.022352,-30920.598617,-187500.022352,-39667.171498,-32765.623363,-56754.655451,187500.0,-187500.022352,-19903.289664,-47900.436568,-52019.32663,-26615.227951
1679627691.997119,0,-32529.298369,-34565.005847,-58153.874654,-45913.232376,-187500.022352,-30913.446058,-187500.022352,-39685.075246,-32767.567965,-56453.175122,187500.0,-187500.022352,-19901.590932,-47887.226687,-52009.670676,-26623.989835
1679627691.997147,0,-32526.705566,-34562.435396,-58144.241052,-45901.140082,-187500.022352,-30893.083619,-187500.022352,-39694.440626,-32767.746778,-55643.617289,187500.0,-187500.022352,-19899.78044,-47881.459937,-52001.065254,-26621.218219
1679627691.997218,0,-32536.406223,-34551.058358,-58147.839683,-45908.449102,-187500.022352,-30888.076828,-187500.022352,-39707.717563,-32765.489252,-55463.462229,187500.0,-187500.022352,-19897.500562,-47861.522181,-51994.426786,-26640.641885
1679627691.997247,0,-32527.130249,-34557.786233,-58153.226453,-45919.915547,-187500.022352,-30889.820265,-187500.022352,-39703.873063,-32756.056816,-54979.815183,187500.0,-187500.022352,-19899.243998,-47856.582446,-51994.002103,-26626.247361
1679627691.997277,0,-32524.269226,-34548.934942,-58168.805619,-45928.476265,-187500.022352,-30902.717221,-187500.022352,-39709.081019,-32738.086014,-54449.430638,187500.0,-187500.022352,-19908.564676,-47853.810829,-51997.645437,-26647.861498
1679627691.997308,0,-32537.277941,-34565.586992,-58191.827916,-45929.951481,-187500.022352,-30932.065062,-187500.022352,-39711.226787,-32737.14724,-54237.893729,187500.0,-187500.022352,-19915.359606,-47869.859382,-52008.30722,-26646.520394
1679627691.99734,0,-32547.470337,-34542.899971,-58194.107794,-45902.123559,-187500.022352,-30918.07287,-187500.022352,-39689.947926,-32730.553476,-53417.428245,187500.0,-187500.022352,-19914.554943,-47873.614475,-52009.402455,-26638.384359
1679627691.997368,0,-32542.575305,-34526.896122,-58202.981437,-45885.069178,-187500.022352,-30916.41884,-187500.022352,-39682.013057,-32707.777048,-53114.606811,187500.0,-187500.022352,-19907.022406,-47863.466783,-51993.71153,-26645.492213
1679627691.997396,0,-32525.967959,-34517.553093,-58214.380826,-45879.257724,-187500.022352,-30921.783259,-187500.022352,-39683.08594,-32721.925702,-52338.978927,187500.0,-187500.022352,-19909.861077,-47866.596027,-51995.11969,-26611.070527
1679627691.997427,0,-32539.535468,-34518.424811,-58198.578143,-45855.050785,-187500.022352,-30905.242968,-187500.022352,-39663.751681,-32715.600159,-51390.035616,187500.0,-187500.022352,-19899.914551,-47892.166423,-51983.58619,-26626.35912
1679627691.997454,0,-32533.724014,-34523.006919,-58184.809468,-45862.963302,-187500.022352,-30903.790105,-187500.022352,-39667.484423,-32730.888752,-50828.068057,187500.0,-187500.022352,-19903.021443,-47905.71158,-51980.926333,-26614.065661
1679627691.997483,0,-32534.796898,-34527.030233,-58160.73664,-45859.85641,-187500.022352,-30880.611346,-187500.022352,-39658.767242,-32738.957732,-49910.171319,187500.0,-187500.022352,-19895.980644,-47902.314115,-51979.048786,-26617.463126
1679627691.997514,0,-32539.870744,-34524.236265,-58155.171055,-45871.658131,-187500.022352,-30874.956354,-187500.022352,-39663.237591,-32746.557325,-49604.801787,187500.0,-187500.022352,-19897.478211,-47890.646504,-51983.429728,-26633.422271
1679627691.997587,0,-32539.848392,-34555.372245,-58152.310032,-45889.561878,-187500.022352,-30862.797006,-187500.022352,-39663.215239,-32764.572831,-48961.362119,187500.0,-187500.022352,-19914.577295,-47894.513356,-52000.797033,-26634.651617
1679627691.997621,0,-32546.620971,-34543.838745,-58139.770703,-45894.70278,-187500.022352,-30839.618247,-187500.022352,-39653.514582,-32750.558287,-48316.313126,187500.0,-187500.022352,-19890.92915,-47868.183001,-51983.362673,-26666.435798
1679627692.474264,0,-32534.506325,-34556.758053,-58149.247843,-45919.088533,-187500.022352,-30848.89422,-187500.022352,-39644.037443,-32758.336694,-48182.649694,187500.0,-187500.022352,-19902.194429,-47865.165516,-51983.742652,-26678.617499
1679627692.474328,0,-32537.836735,-34551.483041,-58147.03502,-45923.044792,-187500.022352,-30848.514241,-187500.022352,-39635.387318,-32760.08013,-47437.77781,187500.0,-187500.022352,-19900.898028,-47848.155838,-51985.575495,-26673.096618
1679627692.47436,0,-32525.878552,-34555.707521,-58164.357622,-45948.123449,-187500.022352,-30870.240136,-187500.022352,-39644.037443,-32746.803194,-47272.352549,187500.0,-187500.022352,-19895.198333,-47845.518332,-51971.471545,-26701.282168
1679627692.474405,0,-32536.763851,-34532.618169,-58176.181695,-45975.459632,-187500.022352,-30883.382962,-187500.022352,-39663.058777,-32762.538822,-46731.39563,187500.0,-187500.022352,-19909.39169,-47849.318129,-51971.382138,-26679.064534
1679627692.474425,0,-32547.962075,-34543.369358,-58191.425585,-46000.940621,-187500.022352,-30890.669631,-187500.022352,-39697.391057,-32751.430005,-46204.453254,187500.0,-187500.022352,-19902.529705,-47829.60389,-51949.812704,-26699.583435
1679627692.474444,0,-32543.245857,-34536.328558,-58202.422643,-46019.38081,-187500.022352,-30908.461619,-187500.022352,-39753.695101,-32763.209374,-46160.152097,187500.0,-187500.022352,-19908.8776,-47835.75062,-51943.688326,-26697.281205
1679627692.474463,0,-32537.25559,-34508.075953,-58194.644236,-46013.390543,-187500.022352,-30894.827055,-187500.022352,-39801.438427,-32762.628229,-45561.304159,187500.0,-187500.022352,-19904.966045,-47851.173324,-51930.41139,-26697.884702
1679627692.474481,0,-32569.486805,-34533.378128,-58196.566486,-46021.593633,-187500.022352,-30903.499532,-187500.022352,-39848.645311,-32747.00436,-45519.372287,187500.0,-187500.022352,-19886.101173,-47836.063544,-51910.518338,-26718.850639
1679627692.47458,0,-32566.424616,-34511.406363,-58200.880373,-46030.713145,-187500.022352,-30911.099125,-187500.022352,-39882.150576,-32759.655447,-45161.230285,187500.0,-187500.022352,-19887.956367,-47863.533838,-51911.144186,-26701.729202
1679627692.4746,0,-32595.906567,-34521.241131,-58198.041701,-46021.861854,-187500.022352,-30900.549102,-187500.022352,-39894.354629,-32750.0889,-44748.885304,187500.0,-187500.022352,-19890.459763,-47863.891466,-51915.323963,-26713.262703
1679627692.474617,0,-32591.749143,-34537.513201,-58204.747224,-46026.600424,-187500.022352,-30906.852294,-187500.022352,-39903.004754,-32749.328941,-44818.466284,187500.0,-187500.022352,-19888.872789,-47871.044024,-51923.61646,-26714.782621
1679627692.474636,0,-32611.06105,-34543.995207,-58204.881335,-46032.747153,-187500.022352,-30896.68225,-187500.022352,-39896.254527,-32754.514546,-44312.981583,187500.0,-187500.022352,-19911.068071,-47898.894298,-51955.043013,-26707.741822
1679627692.474653,0,-32606.83657,-34539.010768,-58199.04753,-46036.099915,-187500.022352,-30884.187625,-187500.022352,-39853.987378,-32747.674912,-44321.229377,187500.0,-187500.022352,-19895.555961,-47897.083807,-51966.330643,-26721.421089
1679627692.474671,0,-32595.258366,-34541.916495,-58202.601457,-46051.813191,-187500.022352,-30884.880529,-187500.022352,-39815.855302,-32742.91399,-44061.882086,187500.0,-187500.022352,-19901.032138,-47899.386036,-51988.905905,-26701.885665
1679627692.474689,0,-32597.538244,-34536.015634,-58186.798774,-46044.504171,-187500.022352,-30872.20709,-187500.022352,-39765.206249,-32735.068528,-43707.338715,187500.0,-187500.022352,-19902.932036,-47898.693132,-51997.176051,-26692.676746
1679627692.474706,0,-32591.011535,-34552.243001,-58188.005768,-46053.400165,-187500.022352,-30885.059343,-187500.022352,-39746.76606,-32733.995644,-43810.044981,187500.0,-187500.022352,-19910.66574,-47898.313153,-52005.11092,-26691.357993
1679627692.474724,0,-32585.110675,-34547.213858,-58173.499486,-46044.012433,-187500.022352,-30873.391732,-187500.022352,-39709.595109,-32738.220124,-43346.134525,187500.0,-187500.022352,-19905.055452,-47893.999266,-52010.274173,-26685.412429
1679627692.474741,0,-32595.504236,-34550.879544,-58181.099079,-46061.759718,-187500.022352,-30888.657974,-187500.022352,-39716.501798,-32731.581656,-43441.196494,187500.0,-187500.022352,-19905.122507,-47883.091615,-52010.296525,-26722.650435
1679627692.474758,0,-32588.50814,-34519.363584,-58171.823105,-46064.888962,-187500.022352,-30888.121532,-187500.022352,-39715.920653,-32746.803194,-43240.969567,187500.0,-187500.022352,-19904.563714,-47886.869059,-52013.31401,-26715.631988
1679627692.4748,0,-32601.941538,-34545.023387,-58167.777439,-46062.676139,-187500.022352,-30876.05159,-187500.022352,-39719.206359,-32769.244345,-42910.722543,187500.0,-187500.022352,-19896.539437,-47870.641693,-51995.477318,-26721.577552
1679627692.474818,0,-32570.559689,-34534.205143,-58166.25752,-46070.096918,-187500.022352,-30881.326602,-187500.022352,-39742.854505,-32770.183119,-42965.752538,187500.0,-187500.022352,-19890.012728,-47874.016806,-51978.914676,-26723.812726
1679627692.474834,0,-32583.76957,-34520.324709,-58160.267253,-46084.267924,-187500.022352,-30877.124474,-187500.022352,-39765.541526,-32775.45813,-42405.282546,187500.0,-187500.022352,-19881.429658,-47871.535763,-51958.395774,-26705.66311
1679627692.474852,0,-32574.270078,-34533.065204,-58162.815352,-46122.176483,-187500.022352,-30888.032125,-187500.022352,-39810.803808,-32779.16852,-42427.410773,187500.0,-187500.022352,-19872.444257,-47856.269521,-51945.677632,-26728.260723
1679627692.474869,0,-32567.184575,-34521.665814,-58186.128221,-46170.70212,-187500.022352,-30917.357614,-187500.022352,-39867.666646,-32777.536843,-42219.450142,187500.0,-187500.022352,-19877.853379,-47862.304492,-51946.705812,-26721.868124
1679627692.474887,0,-32574.515948,-34504.030288,-58193.593704,-46170.366844,-187500.022352,-30919.99512,-187500.022352,-39888.811396,-32765.690418,-41902.770627,187500.0,-187500.022352,-19877.205178,-47857.431812,-51939.88853,-26747.326761
1679627692.474905,0,-32560.70257,-34502.957404,-58214.42553,-46172.847888,-187500.022352,-30941.005759,-187500.022352,-39906.066943,-32757.241459,-41973.357436,187500.0,-187500.022352,-19883.910702,-47865.724309,-51937.049858,-26730.115918
1679627692.474923,0,-32586.20591,-34513.306262,-58218.158271,-46143.79062,-187500.022352,-30938.077681,-187500.022352,-39907.788027,-32757.286162,-41409.780551,187500.0,-187500.022352,-19888.962196,-47879.336522,-51935.731105,-26721.465793
1679627692.47494,0,-32587.74818,-34509.238244,-58218.158271,-46121.438875,-187500.022352,-30937.80946,-187500.022352,-39904.703487,-32732.028691,-41412.038077,187500.0,-187500.022352,-19883.061335,-47873.323902,-51926.544538,-26740.442424
1679627692.474958,0,-32588.038753,-34502.510369,-58224.305001,-46114.398076,-187500.022352,-30936.602466,-187500.022352,-39887.492643,-32741.729348,-41146.924036,187500.0,-187500.022352,-19892.896103,-47898.357856,-51949.231559,-26723.745671
1679627692.474976,0,-32600.443971,-34512.367488,-58218.627658,-46108.698381,-187500.022352,-30910.205055,-187500.022352,-39843.996149,-32743.830412,-40757.288427,187500.0,-187500.022352,-19886.883484,-47895.988571,-51969.61635,-26727.411357
1679627692.475015,0,-32595.146608,-34524.951521,-58213.352646,-46126.155093,-187500.022352,-30907.656957,-187500.022352,-39815.475323,-32741.438775,-40815.045335,187500.0,-187500.022352,-19890.102135,-47904.929269,-51981.127498,-26730.250028
1679627692.475033,0,-32591.637384,-34518.849494,-58192.252599,-46120.500102,-187500.022352,-30878.644392,-187500.022352,-39764.602752,-32742.712825,-40285.621916,187500.0,-187500.022352,-19886.19058,-47913.579394,-51994.136214,-26720.683482
1679627692.475052,0,-32608.803524,-34549.381977,-58186.910532,-46129.105524,-187500.022352,-30880.119607,-187500.022352,-39744.150906,-32742.824583,-40306.744314,187500.0,-187500.022352,-19883.217798,-47895.496833,-51994.650304,-26742.69995
1679627692.47507,0,-32591.07859,-34533.758108,-58183.334253,-46135.386364,-187500.022352,-30887.473331,-187500.022352,-39723.922577,-32756.012113,-40070.106395,187500.0,-187500.022352,-19892.113792,-47900.011885,-52006.072045,-26726.874915
1679627692.475091,0,-32600.466323,-34547.079748,-58183.535419,-46136.861579,-187500.022352,-30881.706581,-187500.022352,-39720.480409,-32762.069435,-39681.051932,187500.0,-187500.022352,-19892.09144,-47891.987609,-52008.57544,-26736.955552
1679627692.475108,0,-32578.963945,-34533.78046,-58197.952294,-46146.003443,-187500.022352,-30894.938814,-187500.022352,-39737.400679,-32760.035427,-39735.411374,187500.0,-187500.022352,-19893.723118,-47872.429833,-52011.816443,-26745.829194
1679627692.475126,0,-32573.465416,-34516.703727,-58199.159288,-46130.245463,-187500.022352,-30891.966032,-187500.022352,-39733.287958,-32763.879927,-39227.088002,187500.0,-187500.022352,-19896.561789,-47877.771899,-52013.761045,-26743.549316
1679627692.475144,0,-32574.314782,-34500.744581,-58213.464405,-46121.908262,-187500.022352,-30905.287672,-187500.022352,-39750.856429,-32760.616572,-39259.430976,187500.0,-187500.022352,-19895.399498,-47862.751527,-52002.518118,-26775.892291
1679627692.475161,0,-32572.548994,-34506.019593,-58216.079559,-46116.387381,-187500.022352,-30905.354727,-187500.022352,-39766.949685,-32770.71956,-39059.919305,187500.0,-187500.022352,-19902.328539,-47874.799117,-52001.154661,-26758.569689
1679627692.475179,0,-32583.344887,-34493.726134,-58198.15346,-46086.838375,-187500.022352,-30876.900956,-187500.022352,-39763.798089,-32772.418293,-38734.746127,187500.0,-187500.022352,-19901.747394,-47858.929379,-51986.961304,-26757.005067
1679627692.475218,0,-32582.406113,-34511.696936,-58205.797756,-46101.746989,-187500.022352,-30893.575358,-187500.022352,-39780.517194,-32765.556308,-38974.178013,187500.0,-187500.022352,-19887.397574,-47857.096536,-51978.869972,-26762.280078
1679627692.475235,0,-32594.051372,-34511.428715,-58202.154422,-46098.863613,-187500.022352,-30887.562738,-187500.022352,-39791.715418,-32790.500854,-38601.306212,187500.0,-187500.022352,-19901.725042,-47881.191716,-51991.677522,-26759.843738
1679627692.475253,0,-32602.209759,-34518.201294,-58205.037797,-46105.300916,-187500.022352,-30890.177892,-187500.022352,-39798.197424,-32791.350221,-38808.752752,187500.0,-187500.022352,-19900.205123,-47871.178135,-51991.118728,-26793.483113
1679627692.475271,0,-32600.600433,-34517.754259,-58202.266181,-46099.400055,-187500.022352,-30878.152654,-187500.022352,-39794.643497,-32804.001308,-38760.607095,187500.0,-187500.022352,-19902.46265,-47877.548382,-51998.405397,-26761.967154
1679627692.475289,0,-32605.115486,-34509.104134,-58189.145707,-46078.255305,-187500.022352,-30855.845613,-187500.022352,-39778.170261,-32796.960508,-38551.730043,187500.0,-187500.022352,-19896.785307,-47870.284065,-51988.034187,-26762.749465
1679627692.475307,0,-32594.833683,-34518.313052,-58190.665625,-46075.75191,-187500.022352,-30862.953468,-187500.022352,-39792.900061,-32791.350221,-38875.875041,187500.0,-187500.022352,-19891.510295,-47869.904085,-51980.412242,-26763.33061
1679627692.475324,0,-32586.764704,-34508.008898,-58192.297303,-46062.206753,-187500.022352,-30862.014694,-187500.022352,-39793.704724,-32782.074247,-38557.519145,187500.0,-187500.022352,-19895.93594,-47868.250056,-51982.960341,-26744.130462
1679627692.475343,0,-32584.484826,-34508.455933,-58195.33714,-46058.272846,-187500.022352,-30867.781445,-187500.022352,-39782.104168,-32776.262793,-38695.630574,187500.0,-187500.022352,-19903.066147,-47868.473574,-51984.189687,-26756.245107
1679627692.475362,0,-32579.120407,-34497.078895,-58200.992131,-46059.681005,-187500.022352,-30885.729895,-187500.022352,-39778.505537,-32775.435779,-38604.882491,187500.0,-187500.022352,-19906.240094,-47874.19562,-51983.96617,-26732.395796
1679627692.47538,0,-32594.096076,-34501.571596,-58198.958123,-46049.555665,-187500.022352,-30883.047686,-187500.022352,-39773.588154,-32766.003342,-38348.753852,187500.0,-187500.022352,-19902.708519,-47871.401652,-51984.189687,-26754.345209
1679627692.475397,0,-32579.835663,-34493.636727,-58199.18164,-46041.062002,-187500.022352,-30872.654125,-187500.022352,-39777.991447,-32781.582508,-38623.412087,187500.0,-187500.022352,-19909.324635,-47871.871039,-51981.216905,-26738.877802
1679627692.475437,0,-32582.696686,-34494.70961,-58198.935771,-46033.440057,-187500.022352,-30873.570546,-187500.022352,-39770.458909,-32779.794369,-38314.39922,187500.0,-187500.022352,-19913.794984,-47879.492984,-51974.980769,-26732.172278
1679627692.475454,0,-32600.265157,-34503.940881,-58196.790003,-46034.378831,-187500.022352,-30873.682305,-187500.022352,-39771.598848,-32799.441552,-38563.554116,187500.0,-187500.022352,-19900.562751,-47882.77869,-51972.991463,-26751.998276
1679627692.475472,0,-32601.785076,-34521.799925,-58199.18164,-46046.694642,-187500.022352,-30882.578299,-187500.022352,-39786.306296,-32817.881741,-38652.290541,187500.0,-187500.022352,-19907.067109,-47896.368551,-51972.969112,-26734.653322
1679627692.47549,0,-32602.030945,-34516.167285,-58185.658835,-46038.960938,-187500.022352,-30864.853366,-187500.022352,-39782.327686,-32825.749555,-38621.981576,187500.0,-187500.022352,-19908.631731,-47897.709655,-51968.364652,-26763.33061
1679627692.475507,0,-32602.47798,-34509.506465,-58182.194314,-46040.458505,-187500.022352,-30865.903898,-187500.022352,-39792.609488,-32825.749555,-39166.827699,187500.0,-187500.022352,-19905.681301,-47893.239307,-51957.904036,-26765.342267
1679627692.475526,0,-32611.977471,-34528.438393,-58177.723965,-46034.6247,-187500.022352,-30851.06234,-187500.022352,-39789.547299,-32831.359843,-39181.646905,187500.0,-187500.022352,-19906.620074,-47904.102254,-51954.148943,-26771.77957
1679627692.475546,0,-32604.959024,-34521.822276,-58168.984433,-46024.879339,-187500.022352,-30838.590066,-187500.022352,-39786.060427,-32832.745651,-39874.148652,187500.0,-187500.022352,-19897.612321,-47895.20626,-51940.089695,-26811.63273
1679627692.475574,0,-32595.057201,-34518.178942,-58176.807544,-46032.970671,-187500.022352,-30843.909781,-187500.022352,-39797.079837,-32835.897247,-40351.02312,187500.0,-187500.022352,-19897.433507,-47902.962315,-51938.972108,-26801.440334
1679627692.475599,0,-32614.793791,-34517.486038,-58171.688994,-46024.991098,-187500.022352,-30833.762089,-187500.022352,-39785.881613,-32844.122689,-40593.181919,187500.0,-187500.022352,-19894.885408,-47901.956487,-51946.057611,-26828.173021
1679627692.953895,0,-32601.360393,-34517.284872,-58173.253616,-46021.30306,-187500.022352,-30832.845668,-187500.022352,-39782.104168,-32845.441442,-41377.86226,187500.0,-187500.022352,-19891.622054,-47895.58624,-51938.122742,-26836.264352
1679627692.953956,0,-32604.109657,-34521.755221,-58174.862942,-46010.753037,-187500.022352,-30826.587179,-187500.022352,-39781.277154,-32847.475451,-41569.059082,187500.0,-187500.022352,-19904.340196,-47905.71158,-51940.715544,-26831.123451
1679627692.954087,0,-32613.743259,-34529.511276,-58187.849306,-46012.921156,-187500.022352,-30843.194526,-187500.022352,-39797.281003,-32849.50946,-42280.872736,187500.0,-187500.022352,-19901.769746,-47894.781577,-51945.342355,-26855.173928
1679627692.954112,0,-32602.165056,-34523.141029,-58190.017425,-46014.306964,-187500.022352,-30849.14009,-187500.022352,-39778.371427,-32861.355884,-42793.308829,187500.0,-187500.022352,-19906.932999,-47919.703772,-51948.4716,-26830.20703
1679627692.954133,0,-32612.08923,-34529.868904,-58190.397404,-46003.175795,-187500.022352,-30841.652255,-187500.022352,-39769.497784,-32867.815538,-43102.858138,187500.0,-187500.022352,-19916.588952,-47918.183853,-51939.419143,-26834.655027
1679627692.954151,0,-32601.4498,-34516.681375,-58201.394463,-45997.029066,-187500.022352,-30847.955447,-187500.022352,-39766.502651,-32861.199422,-43884.588049,187500.0,-187500.022352,-19908.810545,-47903.610516,-51927.639774,-26828.754166
1679627692.954169,0,-32609.317614,-34521.129372,-58210.089291,-45998.101949,-187500.022352,-30852.515203,-187500.022352,-39767.508479,-32871.570631,-44058.685787,187500.0,-187500.022352,-19914.689054,-47908.103217,-51933.60769,-26820.282855
1679627692.954189,0,-32600.578082,-34510.154666,-58215.118434,-45993.788063,-187500.022352,-30864.808663,-187500.022352,-39773.051712,-32876.733884,-44660.68532,187500.0,-187500.022352,-19920.589914,-47914.831092,-51934.658222,-26837.203126
1679627692.954208,0,-32585.423599,-34515.07205,-58215.230193,-45992.46931,-187500.022352,-30872.654125,-187500.022352,-39773.007008,-32883.037076,-45007.0256,187500.0,-187500.022352,-19924.322656,-47910.785426,-51930.366687,-26801.216817
1679627692.954227,0,-32612.022175,-34522.872808,-58224.260297,-45996.760845,-187500.022352,-30881.214843,-187500.022352,-39766.390892,-32889.563786,-45129.982547,187500.0,-187500.022352,-19933.464519,-47919.144978,-51936.669879,-26807.005919
1679627692.954245,0,-32606.277777,-34517.709555,-58233.178643,-46001.834691,-187500.022352,-30894.067096,-187500.022352,-39775.800976,-32891.977774,-45709.42917,187500.0,-187500.022352,-19931.855194,-47926.20813,-51943.040126,-26809.688128
1679627692.954262,0,-32606.166018,-34506.421924,-58234.922079,-45998.593688,-187500.022352,-30890.624927,-187500.022352,-39774.526927,-32911.490847,-45709.116245,187500.0,-187500.022352,-19942.293458,-47934.500627,-51957.032318,-26796.992337
1679627692.954404,0,-32601.628614,-34497.90591,-58227.300135,-45981.427548,-187500.022352,-30881.930099,-187500.022352,-39764.245124,-32908.138085,-46173.89842,187500.0,-187500.022352,-19929.932944,-47915.591051,-51951.466733,-26815.700747
1679627692.954423,0,-32581.042657,-34507.271291,-58227.523652,-45984.065054,-187500.022352,-30885.52873,-187500.022352,-39764.490994,-32916.587045,-46452.71408,187500.0,-187500.022352,-19930.379978,-47933.338336,-51958.59694,-26791.560863
1679627692.95444,0,-32589.133989,-34497.771799,-58212.615038,-45964.842554,-187500.022352,-30863.936944,-187500.022352,-39751.549334,-32918.621054,-46543.216293,187500.0,-187500.022352,-19936.839633,-47927.258662,-51960.966225,-26807.162381
1679627692.954458,0,-32591.391515,-34507.293642,-58215.58782,-45972.129222,-187500.022352,-30868.429645,-187500.022352,-39755.304427,-32935.116641,-47105.228556,187500.0,-187500.022352,-19921.461632,-47923.347106,-51971.896228,-26790.532683
1679627692.954475,0,-32595.861864,-34506.332517,-58207.854117,-45972.777423,-187500.022352,-30860.047741,-187500.022352,-39752.443403,-32952.260429,-47096.578431,187500.0,-187500.022352,-19929.552964,-47925.761095,-51988.727091,-26776.942823
1679627692.954494,0,-32588.977526,-34493.726134,-58196.387672,-45966.340121,-187500.022352,-30850.414139,-187500.022352,-39749.828249,-32953.266257,-47538.919453,187500.0,-187500.022352,-19922.087481,-47916.395714,-51999.500632,-26795.74064
1679627692.954512,0,-32582.607279,-34509.774686,-58197.840535,-45981.136975,-187500.022352,-30859.26543,-187500.022352,-39757.718415,-32966.990229,-47876.900181,187500.0,-187500.022352,-19926.714292,-47928.376249,-52013.939859,-26785.347078
1679627692.954529,0,-32603.774381,-34526.829067,-58199.405157,-45982.232211,-187500.022352,-30854.549212,-187500.022352,-39743.748575,-32986.235081,-48049.634463,187500.0,-187500.022352,-19934.470348,-47938.009851,-52026.054505,-26795.539474
1679627692.954546,0,-32596.577119,-34525.599721,-58200.72391,-45985.361455,-187500.022352,-30863.758131,-187500.022352,-39741.803973,-32994.16995,-48716.230537,187500.0,-187500.022352,-19935.00679,-47928.800932,-52025.763932,-26789.012765
1679627692.954563,0,-32594.207835,-34525.063279,-58200.187469,-45976.19724,-187500.022352,-30854.213936,-187500.022352,-39738.004176,-32999.221444,-48803.312934,187500.0,-187500.022352,-19935.409121,-47935.081772,-52033.43058,-26786.196445
1679627692.954581,0,-32605.003727,-34520.324709,-58203.517878,-45975.057301,-187500.022352,-30848.938924,-187500.022352,-39737.512438,-33005.345822,-49346.66149,187500.0,-187500.022352,-19933.956258,-47909.623135,-52029.630784,-26809.688128
1679627692.954623,0,-32584.037791,-34514.669718,-58217.778291,-45987.283705,-187500.022352,-30864.249869,-187500.022352,-39746.810764,-33012.900712,-49772.462222,187500.0,-187500.022352,-19941.555851,-47923.816493,-52036.291604,-26780.899081
1679627692.95464,0,-32606.613053,-34529.086593,-58216.884222,-45979.617057,-187500.022352,-30852.962238,-187500.022352,-39734.785525,-33010.397316,-49989.050625,187500.0,-187500.022352,-19941.332333,-47919.256737,-52044.137066,-26797.439372
1679627692.954658,0,-32606.054259,-34531.187657,-58223.52269,-45985.070882,-187500.022352,-30863.556965,-187500.022352,-39739.837019,-33033.844296,-50682.781718,187500.0,-187500.022352,-19945.243889,-47917.267432,-52030.278984,-26789.616262
1679627692.954676,0,-32595.951271,-34518.961253,-58221.958068,-45977.314827,-187500.022352,-30857.767863,-187500.022352,-39741.781621,-33032.48084,-50771.518144,187500.0,-187500.022352,-19949.647182,-47922.296574,-52035.464589,-26776.406381
1679627692.954693,0,-32609.988166,-34501.683355,-58216.370132,-45969.02233,-187500.022352,-30858.416064,-187500.022352,-39744.799107,-33028.077546,-51297.231173,187500.0,-187500.022352,-19942.718141,-47910.807778,-52025.60747,-26797.372317
1679627692.954711,0,-32601.092172,-34522.626939,-58224.707332,-45981.271086,-187500.022352,-30869.949564,-187500.022352,-39768.313142,-33021.796706,-51676.629684,187500.0,-187500.022352,-19943.098121,-47910.025467,-52028.088513,-26781.949613
1679627692.954728,0,-32614.570274,-34531.187657,-58219.119396,-45968.754109,-187500.022352,-30859.556003,-187500.022352,-39749.001235,-33028.278712,-51829.292098,187500.0,-187500.022352,-19947.05438,-47908.885528,-52032.91649,-26802.960253
1679627692.954745,0,-32585.960041,-34512.658061,-58214.157309,-45963.63556,-187500.022352,-30861.612363,-187500.022352,-39751.996368,-33020.70147,-52467.747327,187500.0,-187500.022352,-19933.21865,-47913.959374,-52022.075894,-26796.724116
1679627692.954762,0,-32589.648079,-34516.144933,-58210.402216,-45963.367339,-187500.022352,-30856.158537,-187500.022352,-39748.889476,-33023.741308,-52529.393438,187500.0,-187500.022352,-19929.910592,-47915.568699,-52012.531699,-26788.811599
1679627692.95478,0,-32595.459532,-34502.935052,-58208.055283,-45963.926132,-187500.022352,-30852.939886,-187500.022352,-39757.740767,-33022.221389,-52959.061022,187500.0,-187500.022352,-19927.697769,-47910.07017,-52008.553089,-26821.311035
1679627692.954798,0,-32577.131102,-34512.322785,-58213.799681,-45969.134089,-187500.022352,-30858.281953,-187500.022352,-39762.099357,-33036.615913,-53248.024374,187500.0,-187500.022352,-19938.47131,-47915.546348,-51999.657094,-26815.253713
1679627692.954838,0,-32585.356544,-34511.026384,-58210.357512,-45960.908647,-187500.022352,-30843.418043,-187500.022352,-39765.899153,-33035.677139,-53307.927049,187500.0,-187500.022352,-19927.228382,-47898.447263,-51987.341283,-26830.229381
1679627692.954855,0,-32591.615032,-34496.63186,-58213.53146,-45965.937789,-187500.022352,-30848.111909,-187500.022352,-39781.947706,-33027.608159,-53810.550727,187500.0,-187500.022352,-19926.222554,-47909.466673,-51975.316045,-26821.288684
1679627692.954872,0,-32594.543111,-34517.866018,-58216.325428,-45961.221571,-187500.022352,-30846.860212,-187500.022352,-39797.035133,-33032.972578,-53788.958942,187500.0,-187500.022352,-19934.872679,-47908.214975,-51971.404489,-26816.88539
1679627692.954889,0,-32597.314727,-34524.526837,-58215.118434,-45956.326539,-187500.022352,-30850.905877,-187500.022352,-39804.344154,-33034.358386,-54231.702296,187500.0,-187500.022352,-19927.764824,-47904.839862,-51957.591111,-26851.575297
1679627692.954906,0,-32580.483863,-34503.29268,-58211.519803,-45952.660853,-187500.022352,-30848.290723,-187500.022352,-39813.2625,-33037.621741,-54609.804405,187500.0,-187500.022352,-19924.434414,-47902.224708,-51949.835056,-26852.89405
1679627692.954924,0,-32597.09121,-34511.406363,-58212.011541,-45942.066126,-187500.022352,-30843.105119,-187500.022352,-39812.211968,-33035.230104,-54767.071279,187500.0,-187500.022352,-19927.83188,-47893.954562,-51945.051783,-26864.472254
1679627692.954941,0,-32587.301145,-34519.967082,-58217.130091,-45942.691975,-187500.022352,-30852.917534,-187500.022352,-39812.144913,-33019.740345,-55572.941074,187500.0,-187500.022352,-19925.127319,-47885.952638,-51937.273376,-26863.131149
1679627692.954958,0,-32592.35264,-34514.334442,-58226.830748,-45944.725984,-187500.022352,-30862.841709,-187500.022352,-39820.102134,-33023.048404,-56021.339419,187500.0,-187500.022352,-19934.515051,-47897.530842,-51947.733992,-26845.875602
1679627692.954975,0,-32602.410925,-34511.808695,-58227.233079,-45939.540379,-187500.022352,-30858.058436,-187500.022352,-39818.202235,-33012.87836,-57027.547899,187500.0,-187500.022352,-19937.219612,-47884.477423,-51947.555178,-26854.033989
1679627692.954993,0,-32594.341945,-34525.867942,-58235.123245,-45953.621978,-187500.022352,-30869.480177,-187500.022352,-39828.215817,-33016.432287,-58102.95738,187500.0,-187500.022352,-19940.25945,-47888.478385,-51951.354975,-26832.822184
1679627692.955033,0,-32593.38082,-34519.922378,-58240.510016,-45955.857152,-187500.022352,-30870.128378,-187500.022352,-39823.857227,-33005.83756,-59065.84818,187500.0,-187500.022352,-19942.31581,-47887.114929,-51960.563893,-26852.581126
1679627692.955051,0,-32581.422637,-34506.556035,-58233.044533,-45950.96212,-187500.022352,-30868.87668,-187500.022352,-39824.371317,-33004.988194,-60621.104911,187500.0,-187500.022352,-19948.708409,-47870.820507,-51970.063385,-26852.089387
1679627692.955068,11,-32599.684012,-34515.541436,-58228.663591,-45941.21676,-187500.022352,-30862.59584,-187500.022352,-39819.54334,-33005.010546,-61709.56781,187500.0,-187500.022352,-19941.019409,-47886.824356,-51967.6941,-26833.135108
1679627692.955086,11,-32594.878387,-34503.784419,-58217.264201,-45922.64246,-187500.022352,-30839.260619,-187500.022352,-39811.116732,-32996.360421,-63238.985925,187500.0,-187500.022352,-19933.330409,-47877.838955,-51964.184876,-26859.309001
1679627692.955104,11,-32573.376009,-34501.437485,-58213.106777,-45921.61428,-187500.022352,-30832.555095,-187500.022352,-39814.849474,-32998.439133,-64663.261433,187500.0,-187500.022352,-19927.876583,-47880.230591,-51963.648434,-26845.942658
1679627692.955122,11,-32589.938651,-34507.785381,-58200.053358,-45914.640536,-187500.022352,-30816.104211,-187500.022352,-39807.361639,-33003.803552,-65633.707122,187500.0,-187500.022352,-19917.505374,-47879.381225,-51972.700891,-26861.007733
1679627692.95514,11,-32572.88427,-34496.922433,-58199.539268,-45927.872768,-187500.022352,-30815.232493,-187500.022352,-39803.204215,-33001.523674,-66897.094774,187500.0,-187500.022352,-19910.397519,-47886.354969,-51979.853449,-26870.887205
1679627692.955158,11,-32570.96202,-34501.526892,-58200.20982,-45928.744486,-187500.022352,-30808.549322,-187500.022352,-39793.883538,-33002.060116,-67459.352906,187500.0,-187500.022352,-19909.883429,-47890.557097,-51993.71153,-26858.750207
1679627692.955175,11,-32581.042657,-34503.762067,-58209.239925,-45937.640481,-187500.022352,-30813.109078,-187500.022352,-39788.809692,-33000.897825,-68431.452624,187500.0,-187500.022352,-19912.699749,-47881.795213,-52000.707626,-26892.076658
1679627692.955192,11,-32562.848337,-34498.844683,-58222.181585,-45949.263388,-187500.022352,-30830.632845,-187500.022352,-39793.816482,-33003.624738,-69333.211402,187500.0,-187500.022352,-19923.272124,-47887.51726,-52013.626935,-26881.548987
1679627692.955209,11,-32581.668506,-34499.761105,-58224.707332,-45947.922283,-187500.022352,-30831.035177,-187500.022352,-39793.794131,-33001.747191,-69998.68989,187500.0,-187500.022352,-19926.691941,-47880.85644,-52020.466569,-26907.141734
1679627692.955248,11,-32569.196232,-34493.435561,-58227.143672,-45951.610321,-187500.022352,-30843.462747,-187500.022352,-39803.003049,-33002.395392,-71264.312716,187500.0,-187500.022352,-19927.206031,-47873.212144,-52019.84072,-26911.053289
1679627692.955265,11,-32570.135006,-34497.928262,-58232.038704,-45961.109812,-187500.022352,-30851.598782,-187500.022352,-39812.88252,-33001.47897,-72044.321542,187500.0,-187500.022352,-19928.413025,-47880.811737,-52024.936917,-26900.883246
1679627692.955283,11,-32585.445951,-34492.809712,-58223.120358,-45956.818277,-187500.022352,-30842.948656,-187500.022352,-39808.412171,-33004.764677,-73325.478831,187500.0,-187500.022352,-19926.624885,-47885.170327,-52032.447104,-26938.47888
1679627692.955301,11,-32577.756951,-34488.473474,-58208.211745,-45949.464554,-187500.022352,-30829.694072,-187500.022352,-39795.515215,-33017.661633,-74605.630291,187500.0,-187500.022352,-19919.673493,-47869.993492,-52015.146853,-26900.033879
1679627692.95532,11,-32579.880366,-34495.402514,-58204.926038,-45945.776516,-187500.022352,-30817.646482,-187500.022352,-39801.527834,-33021.282616,-75594.091486,187500.0,-187500.022352,-19920.478156,-47861.343367,-52013.470473,-26906.024147
1679627692.955338,11,-32564.368256,-34480.695067,-58201.372111,-45946.581178,-187500.022352,-30822.49681,-187500.022352,-39799.404418,-33006.21754,-77087.433885,187500.0,-187500.022352,-19914.174964,-47854.369623,-52013.671638,-26923.190287
1679627693.433977,11,-32568.123349,-34479.689238,-58201.372111,-45938.065164,-187500.022352,-30809.711612,-187500.022352,-39790.419017,-33002.75302,-77956.022675,187500.0,-187500.022352,-19915.337254,-47847.708803,-52020.623031,-26893.574225
1679627693.434058,11,-32574.113616,-34477.588174,-58203.137899,-45928.766838,-187500.022352,-30810.136296,-187500.022352,-39788.563822,-32990.079581,-79170.25884,187500.0,-187500.022352,-19908.251751,-47845.451277,-52011.101188,-26916.350653
1679627693.434094,11,-32558.690913,-34475.554165,-58211.899783,-45931.024364,-187500.022352,-30817.825296,-187500.022352,-39791.246032,-32992.694735,-80250.026912,187500.0,-187500.022352,-19908.452917,-47853.095574,-52011.995257,-26889.528559
1679627693.434117,11,-32579.478035,-34490.641593,-58221.019294,-45926.196388,-187500.022352,-30813.26554,-187500.022352,-39791.849529,-32994.348764,-80934.034995,187500.0,-187500.022352,-19910.688092,-47854.97312,-52008.843661,-26900.793839
1679627693.434142,11,-32573.241898,-34485.008953,-58229.691771,-45929.504446,-187500.022352,-30824.754336,-187500.022352,-39799.493825,-32998.66265,-82084.859262,187500.0,-187500.022352,-19913.459708,-47860.292835,-52010.87767,-26916.842391
1679627693.434303,11,-32572.169014,-34486.595927,-58231.122283,-45928.252748,-187500.022352,-30822.139182,-187500.022352,-39801.21491,-32998.416781,-82667.815109,187500.0,-187500.022352,-19919.7629,-47870.328769,-52009.648324,-26919.278731
1679627693.434329,11,-32571.386703,-34478.526947,-58228.238908,-45927.023402,-187500.022352,-30818.339386,-187500.022352,-39797.906852,-32988.827883,-83588.125835,187500.0,-187500.022352,-19905.457783,-47856.24717,-51998.181879,-26927.504173
1679627693.434352,11,-32550.107843,-34482.639668,-58226.920155,-45938.176923,-187500.022352,-30828.50943,-187500.022352,-39804.344154,-32996.248662,-84427.389136,187500.0,-187500.022352,-19906.329501,-47862.349196,-51994.873821,-26900.525618
1679627693.434373,11,-32566.826948,-34481.320915,-58222.181585,-45935.204141,-187500.022352,-30823.949674,-187500.022352,-39799.985564,-32995.376944,-84874.178156,187500.0,-187500.022352,-19910.486926,-47855.643672,-51986.02253,-26909.086336
1679627693.434395,11,-32556.768663,-34479.264555,-58223.232117,-45941.641443,-187500.022352,-30839.841764,-187500.022352,-39810.848512,-32996.829807,-85772.204193,187500.0,-187500.022352,-19905.010749,-47847.552341,-51985.776661,-26921.335092
1679627693.434417,11,-32561.797805,-34484.785436,-58240.711181,-45958.561714,-187500.022352,-30858.192546,-187500.022352,-39823.879579,-32993.387639,-86100.707781,187500.0,-187500.022352,-19908.274103,-47862.684472,-51997.623086,-26928.10767
1679627693.43444,11,-32573.465416,-34482.550261,-58226.562527,-45940.099173,-187500.022352,-30838.590066,-187500.022352,-39803.740657,-32997.299194,-86760.464222,187500.0,-187500.022352,-19908.564676,-47854.056699,-51991.766929,-26948.626572
1679627693.434462,11,-32548.722035,-34481.477378,-58237.87251,-45950.96212,-187500.022352,-30851.419968,-187500.022352,-39806.378163,-33003.557682,-87490.852176,187500.0,-187500.022352,-19914.577295,-47855.844838,-51986.938952,-26938.903563
1679627693.434481,11,-32555.718131,-34474.704799,-58226.227251,-45933.818332,-187500.022352,-30837.897162,-187500.022352,-39801.930166,-32993.924081,-87970.453557,187500.0,-187500.022352,-19902.842629,-47852.112097,-51983.295617,-26955.130929
1679627693.4345,11,-32546.688026,-34465.451177,-58235.43617,-45944.502466,-187500.022352,-30850.369436,-187500.022352,-39809.507407,-32990.32545,-89055.653102,187500.0,-187500.022352,-19900.808621,-47853.497905,-51988.83885,-26969.950136
1679627693.434551,11,-32538.887267,-34458.276267,-58230.18351,-45937.148742,-187500.022352,-30832.577447,-187500.022352,-39792.900061,-32989.118456,-89618.626489,187500.0,-187500.022352,-19903.647292,-47849.832219,-51991.588115,-26963.825758
1679627693.43457,11,-32546.665674,-34455.057616,-58219.67819,-45923.447123,-187500.022352,-30818.965235,-187500.022352,-39787.066255,-32991.845368,-90508.248271,187500.0,-187500.022352,-19902.149725,-47840.064507,-51983.228562,-26971.492406
1679627693.434589,11,-32529.298369,-34454.722339,-58210.312809,-45920.407286,-187500.022352,-30821.356871,-187500.022352,-39793.078875,-32989.632546,-91333.921711,187500.0,-187500.022352,-19898.171115,-47840.220969,-51967.247065,-26934.500269
1679627693.434607,11,-32548.543221,-34461.539622,-58218.202975,-45923.223606,-187500.022352,-30825.111964,-187500.022352,-39805.484093,-32993.40999,-91813.433685,187500.0,-187500.022352,-19904.049623,-47843.126696,-51964.587207,-26949.744159
1679627693.434625,11,-32539.244895,-34463.640686,-58222.382751,-45929.280928,-187500.022352,-30837.941866,-187500.022352,-39814.603605,-33006.753982,-92715.661849,187500.0,-187500.022352,-19915.694882,-47848.044079,-51964.900132,-26962.127025
1679627693.434643,11,-32542.038863,-34460.198517,-58225.288478,-45927.202216,-187500.022352,-30846.033197,-187500.022352,-39824.237206,-33013.303043,-93084.733854,187500.0,-187500.022352,-19927.563659,-47855.621321,-51956.652338,-26949.6324
1679627693.434662,11,-32539.446061,-34461.763139,-58219.67819,-45916.49573,-187500.022352,-30841.71931,-187500.022352,-39819.252767,-33006.798685,-93705.620611,187500.0,-187500.022352,-19923.897973,-47854.727251,-51945.610576,-26985.819875
1679627693.43468,11,-32529.410127,-34450.855488,-58222.539213,-45911.690105,-187500.022352,-30847.039026,-187500.022352,-39825.533608,-32998.193264,-94249.460906,187500.0,-187500.022352,-19923.6074,-47848.960501,-51935.172312,-26970.441874
1679627693.434698,11,-32545.056348,-34446.049863,-58229.647068,-45897.384989,-187500.022352,-30840.020578,-187500.022352,-39823.320785,-32999.534368,-94484.981237,187500.0,-187500.022352,-19929.441205,-47847.440582,-51937.742762,-26974.956927
1679627693.434718,11,-32527.934912,-34433.398775,-58231.278745,-45887.416111,-187500.022352,-30840.422909,-187500.022352,-39826.159457,-32996.002793,-95164.831896,187500.0,-187500.022352,-19930.536441,-47843.506675,-51934.412352,-26961.434121
1679627693.434737,11,-32527.174953,-34439.545505,-58231.166986,-45880.375311,-187500.022352,-30845.764976,-187500.022352,-39833.557884,-32990.32545,-95370.91498,187500.0,-187500.022352,-19930.40233,-47843.529027,-51936.267547,-26946.68197
1679627693.434783,11,-32533.299331,-34435.477488,-58224.282649,-45865.846678,-187500.022352,-30840.489965,-187500.022352,-39828.864018,-32986.659764,-95897.745597,187500.0,-187500.022352,-19933.978609,-47852.603835,-51938.189797,-26969.860729
1679627693.434801,11,-32520.044746,-34428.950778,-58231.502263,-45869.355901,-187500.022352,-30849.184793,-187500.022352,-39833.915512,-32985.341011,-96447.084421,187500.0,-187500.022352,-19938.270144,-47857.252998,-51953.679556,-26960.875328
1679627693.434819,11,-32535.556857,-34449.067348,-58232.977478,-45864.460869,-187500.022352,-30843.932133,-187500.022352,-39827.880541,-32992.426514,-96731.733886,187500.0,-187500.022352,-19936.772577,-47857.431812,-51965.90596,-26970.397171
1679627693.434837,11,-32530.661825,-34427.140287,-58220.974591,-45855.721337,-187500.022352,-30836.377244,-187500.022352,-39817.174055,-32993.611156,-97427.230767,187500.0,-187500.022352,-19940.438263,-47853.229684,-51976.455984,-26965.189214
1679627693.434855,11,-32539.513116,-34475.285944,-58225.802568,-45865.48905,-187500.022352,-30845.80968,-187500.022352,-39817.151703,-33000.517845,-97654.83858,187500.0,-187500.022352,-19948.127264,-47853.743774,-51989.598809,-26944.37974
1679627693.434875,11,-32548.386758,-34484.137235,-58221.891012,-45861.39868,-187500.022352,-30840.69113,-187500.022352,-39810.31207,-33006.374002,-98122.705295,187500.0,-187500.022352,-19957.537348,-47856.202466,-52001.691103,-26963.378723
1679627693.434892,11,-32538.93197,-34466.300543,-58218.806472,-45870.339378,-187500.022352,-30845.988494,-187500.022352,-39814.693012,-33008.765639,-98554.116315,187500.0,-187500.022352,-19946.316772,-47866.976007,-52002.026379,-26946.033769
1679627693.43491,11,-32578.248689,-34497.637689,-58221.153405,-45859.834058,-187500.022352,-30834.387938,-187500.022352,-39803.78536,-33017.348709,-98695.736968,187500.0,-187500.022352,-19952.329392,-47870.373472,-52012.934031,-26954.415674
1679627693.434928,11,-32578.025172,-34500.766933,-58229.490606,-45860.705776,-187500.022352,-30834.522049,-187500.022352,-39797.526872,-33049.110538,-99196.773672,187500.0,-187500.022352,-19956.106836,-47861.276312,-52005.960286,-26937.875383
1679627693.434946,11,-32590.318631,-34498.285889,-58240.331202,-45856.302483,-187500.022352,-30834.231476,-187500.022352,-39796.342229,-33048.797613,-99270.757946,187500.0,-187500.022352,-19959.325488,-47862.863286,-52012.598754,-26942.233973
1679627693.434989,11,-32600.533378,-34510.556997,-58248.243719,-45853.664977,-187500.022352,-30834.231476,-187500.022352,-39786.015723,-33051.748044,-99614.795997,187500.0,-187500.022352,-19961.940642,-47856.0013,-52008.30722,-26942.882173
1679627693.435007,11,-32595.615994,-34505.796076,-58255.262167,-45851.675672,-187500.022352,-30848.156613,-187500.022352,-39795.090532,-33062.879212,-99910.017837,187500.0,-187500.022352,-19964.108761,-47858.974082,-52006.183804,-26920.597484
1679627693.435024,11,-32614.90555,-34513.41802,-58262.772353,-45848.077041,-187500.022352,-30862.372322,-187500.022352,-39803.427732,-33061.873384,-99984.695016,187500.0,-187500.022352,-19972.781238,-47863.55619,-52013.649286,-26937.495403
1679627693.435042,11,-32592.889082,-34507.271291,-58257.027955,-45845.50659,-187500.022352,-30868.206128,-187500.022352,-39807.272232,-33063.259192,-100342.479389,187500.0,-187500.022352,-19977.452752,-47868.160649,-52019.706609,-26928.755871
1679627693.435059,11,-32604.936672,-34523.543361,-58254.479856,-45848.591131,-187500.022352,-30867.624982,-187500.022352,-39805.5735,-33064.868518,-100312.483348,187500.0,-187500.022352,-19971.328374,-47869.904085,-52019.997182,-26913.646092
1679627693.435078,11,-32623.913303,-34541.514163,-58253.071696,-45847.965282,-187500.022352,-30867.46852,-187500.022352,-39801.594889,-33069.495329,-100567.539104,187500.0,-187500.022352,-19969.897863,-47870.306417,-52020.243051,-26932.957999
1679627693.435096,11,-32637.45846,-34551.036006,-58230.161158,-45829.256872,-187500.022352,-30835.125546,-187500.022352,-39795.761084,-33080.157111,-100968.037661,187500.0,-187500.022352,-19973.094162,-47876.296684,-52027.328554,-26955.801482
1679627693.435113,11,-32655.585725,-34569.610306,-58227.769521,-45833.481352,-187500.022352,-30839.975874,-187500.022352,-39785.613392,-33059.481747,-103940.819674,187500.0,-187500.022352,-19946.428531,-47839.036326,-52006.161452,-27140.091615
1679627693.435131,11,-32695.774161,-34625.310853,-58251.752943,-45865.332587,-187500.022352,-30862.08175,-187500.022352,-39803.181863,-33110.890759,-104984.512029,187500.0,-187500.022352,-19969.517883,-47874.262676,-52017.40438,-26916.238894
1679627693.435148,11,-32745.953828,-34674.842319,-58257.720859,-45869.646474,-187500.022352,-30857.365532,-187500.022352,-39811.452009,-33133.71189,-104926.531604,187500.0,-187500.022352,-19982.593654,-47890.780615,-52033.542339,-26949.408883
1679627693.435166,11,-32756.347389,-34689.639174,-58283.201847,-45903.375256,-187500.022352,-30895.698773,-187500.022352,-39822.292605,-33147.882896,-105559.912987,187500.0,-187500.022352,-19985.521732,-47898.067283,-52028.848473,-26922.20681
1679627693.43521,11,-32810.9527,-34700.636232,-58266.438039,-45883.750425,-187500.022352,-30868.4967,-187500.022352,-39832.373241,-33154.566068,-104269.479724,187500.0,-187500.022352,-19994.440078,-47914.182891,-52042.594796,-26920.977464
1679627693.435229,11,-32769.534918,-34717.601206,-58276.675138,-45889.874803,-187500.022352,-30892.524826,-187500.022352,-39822.113791,-33122.424259,-106343.587499,187500.0,-187500.022352,-19972.535369,-47898.559022,-52014.476301,-27078.937242
1679627693.435247,11,-32779.660258,-34720.462229,-58300.211525,-45904.984582,-187500.022352,-30912.976672,-187500.022352,-39858.725948,-33146.586495,-105088.31353,187500.0,-187500.022352,-20010.063947,-47940.647357,-52037.096266,-26826.988378
1679627693.435266,11,-32790.277337,-34701.843226,-58281.369004,-45874.34034,-187500.022352,-30886.512206,-187500.022352,-39838.408212,-33108.521474,-105519.299867,187500.0,-187500.022352,-19976.26811,-47905.756283,-52026.948574,-27076.590309
1679627693.435284,11,-32745.171517,-34673.389455,-58310.716845,-45901.296544,-187500.022352,-30926.074794,-187500.022352,-39839.503448,-33111.650719,-106305.053092,187500.0,-187500.022352,-19981.52077,-47929.516188,-52020.041885,-26888.902711
1679627693.435303,11,-32774.385247,-34660.201926,-58282.017205,-45860.504611,-187500.022352,-30876.073942,-187500.022352,-39825.265387,-33099.871349,-104827.021638,187500.0,-187500.022352,-19980.313776,-47927.929214,-52023.037019,-26925.02313
1679627693.43532,11,-32711.822714,-34620.773449,-58291.337882,-45868.975922,-187500.022352,-30902.538407,-187500.022352,-39804.522968,-33058.006532,-107093.332063,187500.0,-187500.022352,-19955.525691,-47889.730083,-51997.153699,-27044.31439
1679627693.435338,11,-32732.565133,-34617.957129,-58305.687702,-45879.704759,-187500.022352,-30907.969881,-187500.022352,-39824.259558,-33091.243576,-105613.378359,187500.0,-187500.022352,-19984.404145,-47927.124551,-52015.303316,-26787.80577
1679627693.435357,11,-32731.581656,-34603.026164,-58287.046348,-45855.743689,-187500.022352,-30885.28286,-187500.022352,-39806.08759,-33055.860764,-106394.705939,187500.0,-187500.022352,-19967.640336,-47907.566775,-52012.66581,-27068.521329
1679627693.435374,11,-32699.193978,-34607.183588,-58315.254249,-45886.164413,-187500.022352,-30924.756041,-187500.022352,-39815.743544,-33074.77034,-107182.135544,187500.0,-187500.022352,-19991.288482,-47925.202301,-52015.303316,-26862.058265
1679627693.435391,11,-32730.374662,-34610.178722,-58278.932664,-45844.344299,-187500.022352,-30871.17891,-187500.022352,-39801.907814,-33076.066741,-105620.620325,187500.0,-187500.022352,-19981.632528,-47928.599766,-52032.514159,-26918.339958
1679627693.435437,11,-32686.028801,-34567.218669,-58289.63915,-45859.945817,-187500.022352,-30899.207997,-187500.022352,-39784.18288,-33035.341863,-107847.815197,187500.0,-187500.022352,-19957.358534,-47895.809757,-52010.900022,-27042.034512
1679627693.435455,11,-32693.293118,-34580.249736,-58289.840316,-45866.249009,-187500.022352,-30899.565625,-187500.022352,-39801.684296,-33060.174651,-106225.436178,187500.0,-187500.022352,-19988.650976,-47939.015679,-52043.2877,-26775.087628
1679627693.914266,11,-32699.819827,-34569.185623,-58261.297138,-45839.203398,-187500.022352,-30873.771712,-187500.022352,-39774.236354,-33036.884133,-106980.388699,187500.0,-187500.022352,-19957.447941,-47903.856385,-52034.905795,-27061.122902
1679627693.91434,11,-32667.901536,-34557.026274,-58298.22222,-45879.682407,-187500.022352,-30922.722032,-187500.022352,-39785.278116,-33051.18925,-107636.077122,187500.0,-187500.022352,-19967.908557,-47904.146958,-52036.090438,-26850.927097
1679627693.914388,11,-32707.084144,-34569.967934,-58281.033728,-45852.949721,-187500.022352,-30886.04282,-187500.022352,-39787.803863,-33055.54784,-105858.353479,187500.0,-187500.022352,-19983.420668,-47923.77179,-52065.728851,-26889.036821
1679627693.914421,11,-32653.127033,-34533.691053,-58296.054101,-45870.272323,-187500.022352,-30920.844486,-187500.022352,-39770.414206,-33022.064927,-107930.539004,187500.0,-187500.022352,-19966.858025,-47902.470577,-52052.921301,-27033.965532
1679627693.914442,11,-32659.407873,-34539.971893,-58296.389377,-45866.13725,-187500.022352,-30913.267244,-187500.022352,-39780.472491,-33053.960866,-106075.768897,187500.0,-187500.022352,-19993.098973,-47938.278072,-52071.674415,-26761.520119
1679627693.914461,11,-32652.970571,-34522.224608,-58267.443868,-45836.364727,-187500.022352,-30885.774599,-187500.022352,-39761.249991,-33011.023165,-106585.925112,187500.0,-187500.022352,-19950.362438,-47895.988571,-52058.822162,-27050.97521
1679627693.914479,11,-32585.624765,-34491.356849,-58300.524449,-45876.955495,-187500.022352,-30939.843469,-187500.022352,-39769.095453,-33016.454639,-107139.711933,187500.0,-187500.022352,-19960.912461,-47914.317002,-52060.632653,-26852.37996
1679627693.914498,11,-32673.489472,-34513.485076,-58255.262167,-45823.735991,-187500.022352,-30875.045761,-187500.022352,-39744.955569,-33007.022203,-105240.126579,187500.0,-187500.022352,-19965.807493,-47911.299516,-52072.724947,-26901.531446
1679627693.914566,11,-32638.777213,-34508.679451,-58271.400126,-45840.276282,-187500.022352,-30906.2935,-187500.022352,-39729.108182,-33020.969691,-107162.287195,187500.0,-187500.022352,-19940.39356,-47880.72233,-52030.368391,-27013.491334
1679627693.914587,11,-32668.929716,-34523.431602,-58291.606103,-45856.458945,-187500.022352,-30914.273073,-187500.022352,-39761.473508,-33075.507948,-105303.270257,187500.0,-187500.022352,-19983.353613,-47922.989478,-52060.923226,-26759.575517
1679627693.914606,11,-32690.834426,-34537.334387,-58275.155219,-45824.786523,-187500.022352,-30882.488892,-187500.022352,-39729.622272,-33049.065834,-105845.881205,187500.0,-187500.022352,-19954.430455,-47888.768958,-52047.378069,-27052.785701
1679627693.914624,11,-32694.768333,-34541.447108,-58317.914107,-45858.671768,-187500.022352,-30928.511134,-187500.022352,-39742.832153,-33081.744085,-106638.161139,187500.0,-187500.022352,-19972.490665,-47904.459882,-52048.383897,-26866.014524
1679627693.914642,11,-32749.507755,-34518.648329,-58291.69551,-45814.817645,-187500.022352,-30873.257622,-187500.022352,-39732.259778,-33093.545806,-104987.887143,187500.0,-187500.022352,-19988.807438,-47900.883603,-52063.516028,-26900.927949
1679627693.91466,11,-32720.115211,-34526.806715,-58304.927743,-45825.434724,-187500.022352,-30893.508302,-187500.022352,-39711.986746,-33100.027812,-107291.413223,187500.0,-187500.022352,-19963.572319,-47872.586295,-52045.232301,-27039.553468
1679627693.914678,11,-32730.017034,-34548.510259,-58308.258153,-45836.387078,-187500.022352,-30891.42959,-187500.022352,-39728.325871,-33135.298864,-105803.055263,187500.0,-187500.022352,-19992.607235,-47906.270374,-52069.863924,-26764.761122
1679627693.914696,11,-32705.340708,-34509.618224,-58279.245589,-45813.700058,-187500.022352,-30856.717331,-187500.022352,-39702.487254,-33087.309669,-106586.327444,187500.0,-187500.022352,-19966.075714,-47862.036271,-52056.87756,-27059.066541
1679627693.914714,11,-32679.166815,-34519.475343,-58309.666313,-45866.338416,-187500.022352,-30906.539369,-187500.022352,-39717.619385,-33102.82178,-107588.065575,187500.0,-187500.022352,-19984.024165,-47883.784519,-52061.750241,-26861.633582
1679627693.914732,11,-32703.150237,-34527.879599,-58267.890903,-45839.493971,-187500.022352,-30851.151747,-187500.022352,-39703.20251,-33110.220207,-105976.683614,187500.0,-187500.022352,-19988.427459,-47886.422025,-52078.290531,-26884.275899
1679627693.914749,11,-32644.678073,-34486.752389,-58268.539103,-45860.079927,-187500.022352,-30874.866948,-187500.022352,-39682.996533,-33089.544843,-108227.839557,187500.0,-187500.022352,-19959.727819,-47862.863286,-52046.126371,-27029.629294
1679627693.914793,11,-32661.196013,-34506.62309,-58270.193132,-45871.814593,-187500.022352,-30873.034104,-187500.022352,-39702.509606,-33124.346509,-106547.502464,187500.0,-187500.022352,-19977.16218,-47897.150862,-52068.500467,-26750.120729
1679627693.914813,11,-32644.454556,-34485.433636,-58240.666478,-45846.713584,-187500.022352,-30842.121642,-187500.022352,-39679.576716,-33088.963698,-106949.118608,187500.0,-187500.022352,-19949.513072,-47861.991568,-52052.541322,-27053.232736
1679627693.914831,11,-32632.898704,-34468.69218,-58281.100783,-45896.222698,-187500.022352,-30904.907692,-187500.022352,-39715.406563,-33121.0161,-107547.720676,187500.0,-187500.022352,-19961.292441,-47881.683455,-52052.13899,-26864.114626
1679627693.914848,11,-32668.08035,-34482.036171,-58246.276766,-45857.062442,-187500.022352,-30852.112872,-187500.022352,-39717.574682,-33133.667187,-105510.336818,187500.0,-187500.022352,-19972.04363,-47892.76992,-52066.533514,-26904.705394
1679627693.914866,11,-32628.718928,-34477.454064,-58268.963786,-45882.118747,-187500.022352,-30880.432532,-187500.022352,-39705.214167,-33105.124009,-107476.619777,187500.0,-187500.022352,-19945.042723,-47857.588274,-52034.883444,-27061.435826
1679627693.914884,11,-32628.74128,-34494.799017,-58277.680967,-45887.393759,-187500.022352,-30876.744494,-187500.022352,-39731.879798,-33146.407681,-105574.709842,187500.0,-187500.022352,-19976.022241,-47891.160594,-52050.708479,-26787.783419
1679627693.914903,11,-32642.487603,-34466.501709,-58255.977423,-45867.679521,-187500.022352,-30858.393712,-187500.022352,-39720.346298,-33106.576873,-105805.826879,187500.0,-187500.022352,-19951.569432,-47861.76805,-52035.777513,-27077.573785
1679627693.91492,11,-32609.876407,-34471.352037,-58289.817964,-45905.431617,-187500.022352,-30910.585035,-187500.022352,-39743.748575,-33124.905303,-106385.720537,187500.0,-187500.022352,-19961.292441,-47881.437586,-52025.138083,-26904.615987
1679627693.914938,11,-32651.048321,-34477.543471,-58266.035708,-45870.205268,-187500.022352,-30864.786311,-187500.022352,-39733.466772,-33130.962626,-104238.790779,187500.0,-187500.022352,-19965.181645,-47889.752434,-52029.787246,-26919.546952
1679627693.914956,11,-32613.273873,-34456.488127,-58287.091051,-45889.07014,-187500.022352,-30900.482047,-187500.022352,-39730.583397,-33092.919957,-106066.001185,187500.0,-187500.022352,-19937.219612,-47863.0421,-51995.36556,-27088.660251
1679627693.914974,11,-32635.335044,-34491.781532,-58305.553592,-45899.284887,-187500.022352,-30911.613215,-187500.022352,-39759.037168,-33127.363995,-104118.717208,187500.0,-187500.022352,-19970.479008,-47903.565813,-52013.1799,-26812.906779
1679627693.915015,11,-32645.482736,-34470.882651,-58286.152278,-45874.027416,-187500.022352,-30889.663802,-187500.022352,-39737.601845,-33092.517625,-104234.946279,187500.0,-187500.022352,-19950.563604,-47879.537687,-51998.427748,-27104.954672
1679627693.915034,11,-32605.227245,-34464.154776,-58319.858708,-45909.119655,-187500.022352,-30937.854163,-187500.022352,-39754.83504,-33101.950062,-104743.426114,187500.0,-187500.022352,-19964.421685,-47894.111025,-51990.1129,-26931.393377
1679627693.915052,11,-32635.983245,-34462.500747,-58294.802403,-45872.999236,-187500.022352,-30888.836788,-187500.022352,-39750.834078,-33111.695422,-102473.382947,187500.0,-187500.022352,-19968.243834,-47923.615327,-52002.182842,-26951.085264
1679627693.915069,11,-32605.517817,-34456.666941,-58301.68674,-45885.650323,-187500.022352,-30909.556855,-187500.022352,-39732.460944,-33085.432122,-104143.795865,187500.0,-187500.022352,-19937.174909,-47889.327751,-51970.957455,-27103.010071
1679627693.915087,11,-32622.840419,-34499.0682,-58307.095862,-45895.596849,-187500.022352,-30908.685137,-187500.022352,-39752.890438,-33123.899475,-102024.291697,187500.0,-187500.022352,-19965.449866,-47928.443304,-51987.117766,-26829.223553
1679627693.915105,11,-32624.226227,-34470.74854,-58271.400126,-45860.214038,-187500.022352,-30870.687171,-187500.022352,-39731.544522,-33098.776114,-101919.886699,187500.0,-187500.022352,-19940.572374,-47891.115891,-51972.656187,-27109.827353
1679627693.915123,11,-32582.473169,-34450.095528,-58296.702301,-45891.975867,-187500.022352,-30915.189495,-187500.022352,-39743.189781,-33112.902416,-102242.91411,187500.0,-187500.022352,-19945.668572,-47901.531804,-51958.775754,-26916.350653
1679627693.91514,11,-32615.330233,-34473.810729,-58268.784972,-45864.08089,-187500.022352,-30869.90486,-187500.022352,-39746.810764,-33113.707079,-99669.133087,187500.0,-187500.022352,-19949.803644,-47906.784464,-51971.806821,-26930.007569
1679627693.915158,11,-32570.872613,-34440.059595,-58281.525467,-45881.157622,-187500.022352,-30895.005869,-187500.022352,-39737.735955,-33087.533186,-101099.845898,187500.0,-187500.022352,-19920.500507,-47894.155728,-51943.710678,-27104.328824
1679627693.915175,11,-32595.839512,-34460.310276,-58292.276656,-45888.421939,-187500.022352,-30898.716259,-187500.022352,-39767.664941,-33128.906265,-98733.667878,187500.0,-187500.022352,-19950.094217,-47926.498702,-51961.54737,-26827.770689
1679627693.915215,11,-32612.335099,-34453.336531,-58265.253397,-45860.303445,-187500.022352,-30866.529747,-187500.022352,-39746.274322,-33102.330041,-98241.393058,187500.0,-187500.022352,-19930.692903,-47894.870984,-51951.667899,-27107.10044
1679627693.915233,11,-32566.536375,-34442.361825,-58296.590542,-45897.384989,-187500.022352,-30910.115649,-187500.022352,-39752.91279,-33116.41164,-98347.899121,187500.0,-187500.022352,-19938.001923,-47901.800025,-51944.872969,-26926.833621
1679627693.91525,11,-32598.901701,-34453.627104,-58268.002661,-45863.387986,-187500.022352,-30854.728026,-187500.022352,-39753.471584,-33124.570027,-95572.572419,187500.0,-187500.022352,-19960.063095,-47909.645487,-51963.156696,-26925.961903
1679627693.915268,11,-32568.972715,-34431.632987,-58276.205751,-45876.307294,-187500.022352,-30879.024372,-187500.022352,-39738.071232,-33095.848035,-96784.484003,187500.0,-187500.022352,-19928.055397,-47890.601801,-51938.390963,-27100.171399
1679627693.915296,11,-32590.810369,-34457.628066,-58283.403013,-45883.102224,-187500.022352,-30886.020468,-187500.022352,-39762.345226,-33127.632216,-94309.877671,187500.0,-187500.022352,-19970.702525,-47926.029316,-51960.407431,-26823.412099
1679627693.915318,11,-32595.034849,-34445.468717,-58257.139713,-45854.939026,-187500.022352,-30853.319866,-187500.022352,-39743.502706,-33106.554521,-93678.105614,187500.0,-187500.022352,-19938.9854,-47896.435606,-51952.83019,-27103.524161
