Timestamp,Label,EXG Channel 0 (Fp1),EXG Channel 1 (Fp2),EXG Channel 2 (C3),EXG Channel 3 (C4),EXG Channel 4 (P7),EXG Channel 5 (P8),EXG Channel 6 (O1),EXG Channel 7 (O2),EXG Channel 8 (F7),EXG Channel 9 (F8),EXG Channel 10 (F3),EXG Channel 11 (F4),EXG Channel 12 (T7),EXG Channel 13 (T8),EXG Channel 14 (P3),EXG Channel 15 (P4)
1679629534.048728,0,-57952.954823,-63458.122427,-63235.364942,-47562.031157,-44864.421471,-62333.673219,-47018.436732,-68673.454961,0.0,0.0,0.0,0.0,0.0,0.0,0.0,0.0
1679629534.048762,0,-57975.060698,-63480.317709,-63363.999231,-47681.165955,-44922.558358,-62351.129931,-47021.387162,-68668.291708,-71303.1824,-66933.192841,187500.0,-187500.022352,-53219.168272,-57704.023445,-69969.319698,-41883.346961
1679629534.048779,0,-57952.060753,-63456.49075,-63260.801227,-47583.868812,-44872.311636,-62349.498254,-47008.356095,-68659.820397,-71323.097804,-66921.301713,187500.0,-187500.022352,-53217.670705,-57698.390806,-69989.279805,-41933.772496
1679629534.048797,0,-57976.468858,-63475.355622,-63294.328844,-47631.187455,-44902.687657,-62363.468094,-47030.506674,-68669.543406,-71321.980217,-66911.019911,187500.0,-187500.022352,-53215.949621,-57678.564808,-69943.324619,-41889.136063
1679629534.048818,0,-57962.029631,-63469.343003,-63325.308362,-47645.559626,-44894.77514,-62364.809199,-46999.504805,-68650.902051,-71318.023958,-66954.874033,187500.0,-187500.022352,-53216.530766,-57748.771638,-70020.326378,-41973.312732
1679629534.048835,0,-57959.906216,-63472.226378,-63206.710006,-47565.249808,-44848.507029,-62363.602205,-47005.875052,-68654.143054,-71319.521525,-66912.942161,187500.0,-187500.022352,-53226.007906,-57648.881692,-69948.97961,-41915.377011
1679629534.048852,0,-57973.496076,-63476.294395,-63331.790368,-47685.502194,-44896.920907,-62361.612899,-47007.462026,-68656.937022,-71316.213467,-66961.579557,187500.0,-187500.022352,-53208.707656,-57656.704802,-69968.58209,-41924.742392
1679629534.048869,0,-57956.285233,-63462.481017,-63228.905288,-47576.090405,-44844.506066,-62337.227146,-47008.914889,-68657.629926,-71309.753813,-66918.127765,187500.0,-187500.022352,-53194.469594,-57708.650256,-69984.921215,-41964.684959
1679629534.048886,0,-57957.492227,-63457.921262,-63269.004317,-47625.130132,-44887.242602,-62345.072609,-47032.004241,-68654.053647,-71294.800495,-66905.566085,187500.0,-187500.022352,-53206.852461,-57722.262469,-69923.073938,-41898.680258
1679629534.048903,0,-57968.489286,-63467.711326,-63331.05276,-47659.395356,-44898.75375,-62356.248481,-47013.139369,-68656.378228,-71305.037594,-66950.671905,187500.0,-187500.022352,-53237.161426,-57697.876715,-70018.381777,-42005.476893
1679629534.048919,0,-57955.86055,-63450.768703,-63207.469965,-47568.624922,-44853.826744,-62376.253292,-47011.060656,-68649.538594,-71305.328167,-66901.498068,187500.0,-187500.022352,-53200.213993,-57679.123602,-69944.777482,-41958.247657
1679629534.049064,0,-57969.137486,-63464.090343,-63298.575675,-47658.814211,-44872.758671,-62353.655678,-47007.305563,-68665.296574,-71289.570187,-66933.930449,187500.0,-187500.022352,-53195.833051,-57668.59593,-69941.916459,-41951.072747
1679629534.049081,0,-57954.295928,-63454.881424,-63174.255273,-47558.85721,-44798.662639,-62356.092019,-47002.38818,-68659.485121,-71295.851027,-66923.425129,187500.0,-187500.022352,-53227.170196,-57698.748433,-69903.583217,-41955.408985
1679629534.049098,0,-57953.267748,-63450.165206,-63150.875348,-47578.124413,-44783.597563,-62354.460341,-47008.892537,-68669.051667,-71285.703335,-66900.201666,187500.0,-187500.022352,-53208.372379,-57692.735814,-69780.603919,-41847.159487
1679629534.049115,0,-57953.781838,-63454.032058,-63204.452479,-47630.293385,-44791.264211,-62365.122123,-47004.757464,-68657.182891,-71287.04444,-66940.166585,187500.0,-187500.022352,-53246.593862,-57736.411123,-69811.203457,-41901.027191
1679629534.049132,0,-57948.059791,-63451.819235,-63084.892998,-47537.623052,-44744.504362,-62360.271795,-47001.248241,-68648.800987,-71291.671251,-66912.316312,187500.0,-187500.022352,-53192.413234,-57591.348301,-69722.623494,-41840.722184
1679629534.049152,0,-57952.66425,-63450.411075,-63186.302863,-47630.002812,-44776.288542,-62334.008495,-47007.350267,-68658.121664,-71267.710181,-66922.084024,187500.0,-187500.022352,-53182.734928,-57726.844576,-69707.603122,-41824.628928
1679629534.049169,0,-57948.752695,-63452.869767,-63107.021225,-47558.879561,-44735.116629,-62366.709097,-47011.708857,-68645.716446,-71276.986155,-66909.656454,187500.0,-187500.022352,-53208.551193,-57703.4423,-69693.588578,-41857.865972
1679629534.049186,0,-57974.323091,-63473.098096,-63123.963848,-47591.200184,-44749.578208,-62334.164957,-47023.935261,-68658.211071,-71285.390411,-66904.672015,187500.0,-187500.022352,-53214.183833,-57627.781645,-69622.89001,-41793.560003
1679629534.049217,0,-57957.894559,-63461.318727,-63195.936465,-47641.89394,-44766.431423,-62349.83353,-47011.664154,-68657.875795,-71304.679967,-66958.249147,187500.0,-187500.022352,-53239.553063,-57715.512242,-69664.710124,-41863.118632
1679629534.644428,0,-63072.666594,-63918.411901,-55094.636094,-47713.017191,-52121.45175,-56304.401911,-65173.931739,-31495.083153,-69078.535626,60301.810241,0.0,-120341.814499,-55428.124121,-63642.189043,-55695.13806,-20919.623485
1679629534.644469,0,-62721.163061,-64761.273832,-62644.764798,-50791.098272,-41910.973717,-65632.343666,-61712.138261,-63017.614248,-68360.441132,-69930.315903,187500.0,-187500.022352,-54507.768692,-53901.723492,-72371.081694,-46038.715069
1679629534.644609,0,-62704.578066,-64744.174748,-63055.098123,-50898.565459,-42175.193688,-65632.120148,-61714.775767,-63037.484948,-68356.261355,-69954.075808,187500.0,-187500.022352,-54534.00964,-53925.930432,-72733.604638,-46384.898887
1679629534.644625,0,-62683.276854,-64729.444948,-62824.249306,-50747.37826,-42042.938416,-65608.874334,-61693.67572,-63003.443242,-68356.95426,-69911.294569,187500.0,-187500.022352,-54492.725967,-53901.678789,-72976.881024,-46640.491085
1679629534.64464,0,-62726.728645,-64766.437085,-63157.267947,-50962.603207,-42268.556925,-65659.724553,-61735.406427,-63056.908614,-68352.3498,-69940.932982,187500.0,-187500.022352,-54506.181718,-53926.980964,-73054.73215,-46776.926133
1679629534.644657,0,-62716.67036,-64765.945347,-63298.441565,-50867.273017,-42366.166993,-65621.860697,-61716.474499,-63036.590879,-68344.996076,-69964.134093,187500.0,-187500.022352,-54516.731741,-53944.460028,-73673.964879,-47387.374626
1679629534.644672,0,-62724.404064,-64770.885083,-63155.993897,-50843.22254,-42291.646277,-65638.28923,-61716.74272,-63025.638524,-68356.149597,-69950.030142,187500.0,-187500.022352,-54495.408177,-53888.62537,-73679.888091,-47452.64172
1679629534.644687,0,-62716.804471,-64761.653812,-63503.876448,-50927.689782,-42500.433922,-65634.824709,-61720.140185,-63036.054437,-68366.073771,-69970.213767,187500.0,-187500.022352,-54545.319622,-53900.963533,-74033.537392,-47767.153116
1679629534.644702,0,-62698.744261,-64747.572213,-63204.832459,-50753.882617,-42315.070905,-65612.182392,-61722.353008,-63020.475271,-68351.858062,-69953.427607,187500.0,-187500.022352,-54489.261447,-53840.859692,-74209.222103,-47915.769865
1679629534.644718,0,-62703.34872,-64731.568364,-63420.23622,-50903.549898,-42452.601189,-65620.586648,-61721.414235,-63026.86787,-68334.937791,-69929.824165,187500.0,-187500.022352,-54508.975686,-53950.025612,-74174.912176,-47886.332618
1679629534.644733,0,-62697.693729,-64751.170844,-63446.186596,-50812.555946,-42463.911171,-65621.726587,-61697.408461,-63018.262448,-68350.94164,-69925.15265,187500.0,-187500.022352,-54517.603459,-53912.049998,-74602.970434,-48231.018869
1679629534.644747,0,-62712.535287,-64766.347678,-63266.947957,-50833.0972,-42361.026092,-65640.34559,-61706.438566,-63026.934925,-68358.809454,-69955.707485,187500.0,-187500.022352,-54496.972799,-53881.96455,-74469.865795,-48133.967594
1679629534.644768,0,-62714.23402,-64765.297146,-63605.420423,-50933.657698,-42566.215106,-65648.392218,-61706.684435,-63039.273088,-68362.564547,-69975.37702,187500.0,-187500.022352,-54550.885207,-53945.398801,-74765.735837,-48384.083615
1679629534.644804,0,-62701.895857,-64765.677126,-63276.648614,-50769.17121,-42360.444946,-65641.329067,-61671.949824,-62994.055509,-68369.359478,-69965.832825,187500.0,-187500.022352,-54501.97959,-53895.107376,-74922.823897,-48516.89768
1679629534.64482,0,-62705.449784,-64760.133894,-63454.70261,-50924.225262,-42471.19784,-65645.352381,-61703.80106,-63033.998076,-68354.093236,-69966.771599,187500.0,-187500.022352,-54494.491755,-53907.289077,-74824.386814,-48423.020354
1679629534.644835,0,-62695.682072,-64747.236937,-63476.495561,-50821.116665,-42480.429111,-65627.359227,-61673.04506,-63009.254695,-68361.31285,-69957.070942,187500.0,-187500.022352,-54498.179793,-53929.909042,-75207.652176,-48710.597898
1679629534.64485,0,-62718.100872,-64765.72183,-63258.744867,-50813.293554,-42345.424574,-65645.531195,-61681.494019,-63012.182774,-68376.042649,-69942.83288,187500.0,-187500.022352,-54470.262464,-53892.961609,-75060.890622,-48571.815917
1679629534.644865,0,-62718.413796,-64762.927862,-63596.79265,-50929.567329,-42551.194734,-65647.14052,-61681.896351,-63026.823166,-68389.386641,-69980.339108,187500.0,-187500.022352,-54528.488759,-53918.844929,-75292.097067,-48727.071134
1679629534.64488,0,-62709.607209,-64770.013365,-63244.417399,-50730.525044,-42325.576225,-65616.831555,-61663.56792,-62989.763974,-68393.879341,-69966.324564,187500.0,-187500.022352,-54479.94077,-53882.813917,-75418.317368,-48771.171125
1679629534.644895,0,-62726.572183,-64772.360298,-63366.144999,-50879.186497,-42397.168862,-65618.507936,-61691.999339,-63020.58703,-68412.967731,-69981.255529,187500.0,-187500.022352,-54500.973761,-53885.362015,-75221.599665,-48525.033715
1679629534.64491,0,-62706.790889,-64760.826798,-63333.176176,-50788.281952,-42368.469223,-65629.773215,-61652.503807,-62997.095346,-68420.790842,-69984.071849,187500.0,-187500.022352,-54507.723988,-53890.860545,-75489.530026,-48643.073278
1679629534.644926,0,-62721.699503,-64769.745144,-63088.37987,-50783.208106,-42231.274215,-65629.862622,-61667.948862,-63016.943695,-68442.494386,-69955.483968,187500.0,-187500.022352,-54477.862057,-53909.211327,-75255.574316,-48370.426699
1679629534.644942,0,-62734.439997,-64768.493446,-63413.195421,-50901.471186,-42450.164849,-65657.64584,-61665.110191,-63019.581201,-68455.88308,-70003.383756,187500.0,-187500.022352,-54506.651104,-53946.784609,-75438.836269,-48447.093182
1679629534.644958,0,-62755.383582,-64776.942405,-63116.274848,-50759.537609,-42317.30608,-65642.111378,-61630.88967,-62998.928189,-68489.410697,-70000.030994,187500.0,-187500.022352,-54492.144822,-53921.460083,-75567.090579,-48487.281619
1679629534.645024,0,-62790.72169,-64790.398155,-63333.042065,-50941.190236,-42533.782725,-65638.691561,-61673.357984,-63088.782202,-68538.629238,-70041.202908,187500.0,-187500.022352,-54513.468386,-53904.562164,-75448.671037,-48331.646422
1679629534.645039,0,-62817.342617,-64819.991865,-63426.651171,-50836.449961,-42705.399419,-65613.702311,-61636.969344,-63112.966789,-68536.483471,-70080.407867,187500.0,-187500.022352,-54476.476249,-53906.953801,-75866.559251,-48589.652609
1679629534.645055,0,-62891.505705,-64872.58552,-63264.288099,-50844.720107,-42801.444864,-65654.740114,-61645.999449,-63161.268909,-68564.892538,-70143.86447,187500.0,-187500.022352,-54459.131296,-53866.675957,-75743.624657,-48416.426589
1679629534.64507,0,-62935.315124,-64884.275482,-63654.035467,-50987.145422,-43401.499796,-65648.213404,-61645.552414,-63230.693427,-68593.547475,-70239.462881,187500.0,-187500.022352,-54511.635543,-53835.942308,-76012.627901,-48592.066597
1679629534.645086,0,-62957.577462,-64891.875075,-63335.500757,-50833.030144,-43831.145028,-65672.643861,-61661.466856,-63225.463119,-68586.506675,-70263.133378,187500.0,-187500.022352,-54451.598758,-53766.964825,-76264.688523,-48765.33732
1679629534.645102,0,-63020.765843,-64915.299704,-63294.239437,-51014.14633,-44693.274163,-65719.180193,-61796.449041,-63246.496111,-68579.532931,-70454.218442,187500.0,-187500.022352,-54467.893179,-53744.47897,-76258.966477,-48660.194714
1679629534.645117,0,-63034.109835,-64919.255962,-63280.247245,-50951.49439,-45395.208346,-65798.283016,-61875.417754,-63187.42045,-68537.355189,-70558.914013,187500.0,-187500.022352,-54464.138086,-53669.421812,-76845.476251,-48935.88113
1679629534.645132,0,-63062.831827,-64921.669951,-63051.655954,-50960.949178,-45984.288571,-65823.875764,-62053.47175,-63182.078383,-68491.131781,-70598.498952,187500.0,-187500.022352,-54467.5132,-53609.586192,-76803.790248,-48685.943924
1679629534.645147,0,-63075.080583,-64907.387186,-63564.539083,-51053.172475,-46679.830155,-65786.593054,-62227.748302,-63191.756689,-68457.827682,-70668.750485,187500.0,-187500.022352,-54467.379089,-53574.739823,-77035.779004,-48691.643619
1679629534.645162,0,-63067.793914,-64888.119982,-63541.18151,-50852.185589,-46751.959235,-65811.381139,-62372.721716,-63197.992825,-68385.720955,-70713.856305,187500.0,-187500.022352,-54447.307223,-53579.523096,-77284.285698,-48743.656128
1679629534.645197,0,-63070.543178,-64880.6545,-63862.733705,-51014.503958,-46996.152043,-65788.604711,-62553.547329,-63284.203504,-68351.7016,-70734.688131,187500.0,-187500.022352,-54461.165304,-53575.119802,-77328.296283,-48683.999322
1679629534.645212,0,-63039.831882,-64883.493171,-63945.636326,-50927.823893,-47156.14583,-65728.143242,-62659.226377,-63321.843841,-68325.214782,-70719.243076,187500.0,-187500.022352,-54482.958255,-53580.953608,-77967.265602,-49079.915771
1679629534.645228,0,-63044.235175,-64889.908122,-63725.270477,-50907.79673,-47174.787185,-65763.168426,-62756.188244,-63377.499685,-68297.386861,-70782.163236,187500.0,-187500.022352,-54455.107982,-53554.444439,-78136.043624,-49129.693106
1679629534.645243,0,-63016.586067,-64865.388258,-64227.894155,-51123.44636,-47652.376908,-65808.006025,-62820.471861,-63384.09345,-68271.74941,-70779.212806,187500.0,-187500.022352,-54507.589878,-53552.835113,-78772.80012,-49585.579286
1679629534.645259,0,-62985.025404,-64846.568089,-64384.356366,-51054.491228,-47919.994345,-65790.571665,-62875.054821,-63352.95747,-68216.674711,-70737.191527,187500.0,-187500.022352,-54485.171078,-53615.777626,-79653.391797,-50183.108471
1679629534.645274,0,-62981.158552,-64833.715836,-65208.956922,-51322.443941,-48589.16087,-65781.854484,-63053.309983,-63391.804801,-68191.596054,-70815.221466,187500.0,-187500.022352,-54479.627845,-53615.531756,-80591.650974,-50784.169231
1679629534.645289,0,-62925.748578,-64798.690653,-66042.341714,-51342.359345,-49200.168157,-65783.687327,-63189.052127,-63331.835071,-68139.874117,-70754.134149,187500.0,-187500.022352,-54495.877563,-53654.446143,-82207.100953,-51870.821639
1679629534.645304,0,-62880.93333,-64751.550824,-66407.703329,-51310.955144,-49448.093706,-65767.884644,-63408.456851,-63282.862399,-68113.76728,-70743.695884,187500.0,-187500.022352,-54472.89997,-53645.237225,-83343.798917,-52594.414663
1679629534.645319,0,-62866.114124,-64767.509969,-66961.043115,-51364.286407,-49702.121282,-65746.315211,-63645.318287,-63256.576747,-68089.001547,-70684.754334,187500.0,-187500.022352,-54502.046645,-53743.383735,-84523.211065,-53359.201951
1679629534.645334,0,-62818.28139,-64774.908397,-66833.504061,-51205.052579,-49519.373419,-65748.013943,-64032.808129,-63240.639954,-68061.955936,-70685.357831,187500.0,-187500.022352,-54493.374168,-53756.995947,-85346.314054,-53860.998614
1679629534.645351,0,-62784.172628,-64775.087211,-67110.196306,-51356.172723,-49582.003007,-65764.844807,-64579.062412,-63319.809833,-68058.357305,-70630.50665,187500.0,-187500.022352,-54503.834784,-53777.894828,-85934.164933,-54202.510917
1679629534.645385,0,-62732.026009,-64761.49735,-67316.301741,-51327.093104,-49570.693024,-65788.872932,-65051.533586,-63322.290876,-68044.074541,-70552.074379,187500.0,-187500.022352,-54509.355665,-53841.351431,-86927.208236,-54815.708675
1679629534.6454,0,-62722.280648,-64762.726696,-67384.541617,-51358.229084,-49496.038198,-65722.912934,-65505.095184,-63310.533859,-68034.32918,-70506.074489,187500.0,-187500.022352,-54530.343953,-53901.254106,-87537.455563,-55181.316159
1679629534.645418,0,-62732.42834,-64768.448742,-67982.294319,-51492.563068,-49737.794666,-65702.505791,-65841.757159,-63319.921591,-68052.724666,-70440.472119,187500.0,-187500.022352,-54550.751096,-53905.813862,-88587.339352,-55860.473914
1679629534.645434,0,-62689.803563,-64774.05903,-68148.591298,-51403.178442,-49733.436076,-65703.153992,-66109.396948,-63309.505678,-68036.899631,-70458.264107,187500.0,-187500.022352,-54557.769544,-53937.888615,-89649.293083,-56495.375215
1679629534.645449,0,-62671.743354,-64763.911338,-68866.618737,-51577.745566,-50096.674275,-65727.964428,-66331.506232,-63346.766036,-68079.502056,-70413.44886,187500.0,-187500.022352,-54598.293257,-53943.543606,-90642.202275,-57048.111504
1679629534.645464,0,-62641.099112,-64744.398265,-69677.003584,-51566.793211,-50535.84135,-65704.740966,-66457.570071,-63346.095484,-68041.414683,-70340.068083,187500.0,-187500.022352,-54596.2816,-54013.54927,-92176.11309,-57935.721628
1679629534.645479,0,-62656.18654,-64744.890004,-70523.687664,-51624.795988,-51012.916984,-65701.611722,-66573.620328,-63378.997252,-68065.934547,-70333.608429,187500.0,-187500.022352,-54594.739329,-53962.94492,-93526.60549,-58663.919111
1679629534.645494,0,-62656.030077,-64738.698571,-71905.27134,-51758.884103,-51805.129862,-65687.418364,-66699.527705,-63418.068101,-68073.109457,-70294.559931,187500.0,-187500.022352,-54629.272774,-54017.639639,-95377.776966,-59710.159565
1679629534.645508,0,-62626.056388,-64711.429442,-72775.514159,-51693.080567,-52311.307467,-65714.240457,-66789.515828,-63413.687159,-68084.151218,-70277.013812,187500.0,-187500.022352,-54632.29026,-54002.820433,-97300.943411,-60764.73722
1679629534.645524,0,-62638.193385,-64716.995027,-73995.740592,-51831.639031,-53044.779962,-65669.089934,-66884.756611,-63425.645343,-68053.015238,-70279.785428,187500.0,-187500.022352,-54629.585699,-54028.971974,-99101.354075,-61716.809775
1679629534.645539,0,-62630.772606,-64715.385701,-75082.840035,-51817.222156,-53671.411117,-65633.438901,-67010.149897,-63442.297392,-68071.366021,-70230.544535,187500.0,-187500.022352,-54654.820818,-53998.864174,-101283.979569,-62897.093641
1679629534.645571,0,-62608.487917,-64711.094166,-75784.595404,-51818.004467,-54097.770643,-65660.305698,-67079.842637,-63456.177825,-68086.229931,-70265.569719,187500.0,-187500.022352,-54620.667353,-54035.945718,-103018.027904,-63806.139088
1679629534.645586,0,-62634.482996,-64718.649056,-76870.711371,-51919.302573,-54720.244374,-65686.367832,-67130.357579,-63478.14959,-68070.762524,-70252.873928,187500.0,-187500.022352,-54672.65751,-54042.271261,-104994.838535,-64890.422212
1679629534.645601,0,-62598.608446,-64685.635529,-77227.378157,-51796.122109,-54852.566701,-65645.531195,-67172.736487,-63489.906608,-68070.047268,-70226.923552,187500.0,-187500.022352,-54652.272719,-53988.247095,-106768.22594,-65827.697912
1679629534.645617,0,-62605.112804,-64702.712262,-77820.66051,-51885.797308,-55111.019923,-65644.011276,-67199.1786,-63506.066919,-68099.238646,-70209.98093,187500.0,-187500.022352,-54651.333946,-54009.414197,-108163.622995,-66539.332752
1679629535.123903,0,-62605.850411,-64726.248649,-78007.297576,-51767.601284,-55051.40782,-65662.518521,-67220.748034,-63482.172904,-68111.688568,-70231.975047,187500.0,-187500.022352,-54624.444798,-54090.707492,-109677.283129,-67318.112232
1679629535.123975,0,-62625.877574,-64745.292335,-77516.520323,-51666.929026,-54568.051346,-65693.498038,-67239.590554,-63464.962061,-68144.858556,-70241.854518,187500.0,-187500.022352,-54611.369027,-54070.859143,-110242.312877,-67497.932017
1679629535.124011,0,-62659.941633,-64778.909359,-77166.916688,-51628.416971,-54091.512155,-65685.362003,-67293.167686,-63437.000029,-68177.402696,-70253.723294,187500.0,-187500.022352,-54646.416562,-54085.276018,-110591.871809,-67530.274991
1679629535.124046,0,-62666.222473,-64806.223191,-75681.240938,-51309.524633,-52863.84259,-65682.992719,-67296.43104,-63391.78245,-68212.584342,-70240.200489,187500.0,-187500.022352,-54585.686873,-54048.216826,-110248.079628,-67073.651203
1679629535.124072,0,-62717.206802,-64853.944165,-73840.41832,-51132.364706,-51357.938511,-65678.321204,-67296.989834,-63340.909879,-68274.990413,-70309.468545,187500.0,-187500.022352,-54585.888038,-54060.286768,-108793.83043,-65882.727907
1679629535.124096,0,-62739.849119,-64907.856573,-70945.040398,-50700.417244,-49077.948818,-65706.663216,-67279.421363,-63234.046189,-68314.284779,-70294.403469,187500.0,-187500.022352,-54569.705375,-54071.037957,-106538.159435,-64122.684493
1679629535.124249,0,-62774.851951,-64942.322963,-67682.311557,-50585.03754,-46683.965228,-65742.269545,-67302.287197,-63254.766256,-68367.481931,-70323.863068,187500.0,-187500.022352,-54541.117494,-54037.465636,-102618.713989,-61310.18684
1679629535.124267,0,-62773.913178,-64917.110195,-66038.564269,-50784.213934,-45475.33935,-65779.060516,-67260.645897,-63309.684492,-68387.956129,-70324.623027,187500.0,-187500.022352,-54606.675161,-54081.498573,-99527.825359,-59139.072494
1679629535.124286,0,-62749.59448,-64916.394939,-64442.225032,-50731.285004,-44393.492567,-65741.353123,-67257.762522,-63342.988592,-68358.49653,-70339.486937,187500.0,-187500.022352,-54590.380739,-54074.189553,-97178.411147,-57509.496213
1679629535.124304,0,-62770.269843,-64904.056776,-63901.268113,-50968.459364,-44073.147365,-65768.197568,-67214.958932,-63422.784319,-68363.592728,-70330.278019,187500.0,-187500.022352,-54622.701362,-54110.645248,-95128.644422,-56140.474217
1679629535.124322,0,-62735.714046,-64871.132656,-63905.961979,-51031.893615,-44117.292061,-65789.454077,-67148.283678,-63430.450968,-68344.169062,-70288.837885,187500.0,-187500.022352,-54659.648795,-54130.225376,-94302.702761,-55579.199562
1679629535.124339,0,-62730.304924,-64859.12977,-63737.876861,-51075.390109,-44088.055979,-65794.371461,-67075.841674,-63432.66379,-68345.063131,-70283.093486,187500.0,-187500.022352,-54611.413731,-54131.968812,-93370.232686,-54980.284569
1679629535.124356,0,-62724.895802,-64842.433017,-64362.988098,-51221.659925,-44531.536941,-65749.913841,-67033.999209,-63454.769666,-68337.284724,-70325.964132,187500.0,-187500.022352,-54648.227054,-54120.055332,-93038.421039,-54793.938076
1679629535.124374,0,-62711.663569,-64827.859679,-64332.545022,-51107.55427,-44545.775002,-65766.968222,-66954.225833,-63422.560802,-68305.142916,-70302.830077,187500.0,-187500.022352,-54607.546879,-54101.458681,-92853.996796,-54703.078235
1679629535.124391,0,-62732.920078,-64825.088063,-64725.443986,-51266.497525,-44827.429334,-65773.807856,-66896.893608,-63434.407226,-68317.928114,-70302.472449,187500.0,-187500.022352,-54606.92103,-54127.029076,-92334.631662,-54428.397647
1679629535.124407,0,-62729.366151,-64825.065711,-65227.955905,-51257.310958,-45159.039814,-65740.79433,-66830.7995,-63425.757101,-68333.730797,-70334.636609,187500.0,-187500.022352,-54611.480786,-54104.453815,-92529.382411,-54597.82387
1679629535.12443,0,-62717.452671,-64818.159022,-65255.940289,-51232.277004,-45202.983344,-65773.874912,-66766.113551,-63412.480165,-68346.717161,-70350.685161,187500.0,-187500.022352,-54569.459506,-54132.862882,-92263.597818,-54459.913607
1679629535.124534,0,-62714.658703,-64809.352435,-65875.128314,-51337.956052,-45603.973639,-65692.514562,-66750.087351,-63455.46257,-68352.439207,-70311.994292,187500.0,-187500.022352,-54620.332077,-54113.685085,-92269.610437,-54505.019427
1679629535.124561,0,-62692.441069,-64787.738298,-65732.926516,-51174.810669,-45518.947604,-65715.648617,-66684.820257,-63414.581229,-68338.849347,-70341.476243,187500.0,-187500.022352,-54546.392506,-54061.940797,-92268.336388,-54549.857026
1679629535.124589,0,-62721.766558,-64790.867542,-65800.048804,-51246.269196,-45599.547994,-65731.116024,-66633.031265,-63408.747424,-68345.644277,-70324.131289,187500.0,-187500.022352,-54574.086317,-54105.750216,-91729.972271,-54259.418459
1679629535.124614,0,-62703.683997,-64796.455478,-65884.806619,-51189.227544,-45686.250411,-65734.446434,-66628.315047,-63419.20804,-68316.899933,-70281.260643,187500.0,-187500.022352,-54565.167971,-54155.125219,-91709.453369,-54281.747852
1679629535.124636,0,-62697.626674,-64793.058013,-65368.011936,-51115.846767,-45402.673829,-65778.971109,-66633.545355,-63421.487918,-68330.780367,-70331.037978,187500.0,-187500.022352,-54522.118511,-54101.726902,-91064.896114,-53913.704027
1679629535.124653,0,-62692.351662,-64780.384574,-65564.372011,-51233.349888,-45589.109729,-65758.161635,-66582.87395,-63447.90768,-68337.86587,-70307.434536,187500.0,-187500.022352,-54553.075678,-54089.098166,-90614.486112,-53687.705539
1679629535.124671,0,-62696.0397,-64788.162981,-65080.613206,-51065.331824,-45331.416468,-65708.429004,-66618.681445,-63431.836776,-68321.638503,-70344.963115,187500.0,-187500.022352,-54549.164122,-54052.128381,-90252.790183,-53504.957677
1679629535.124688,0,-62700.331235,-64770.21453,-64997.442364,-51189.518117,-45379.003332,-65757.178158,-66686.720155,-63475.668547,-68334.513108,-70380.100057,187500.0,-187500.022352,-54520.196261,-54128.236071,-89432.503513,-53035.951023
1679629535.124706,0,-62669.172903,-64739.883213,-65148.383695,-51168.641587,-45578.693817,-65774.590167,-66701.271141,-63429.556898,-68297.096288,-70350.729865,187500.0,-187500.022352,-54535.373096,-54086.348902,-89349.623245,-53014.381589
1679629535.124723,0,-62669.083496,-64718.984332,-64857.073409,-51119.937136,-45512.890281,-65738.35799,-66774.987194,-63437.78234,-68309.099175,-70341.208022,187500.0,-187500.022352,-54517.894032,-54097.815346,-88841.90337,-52721.976068
1679629535.12474,0,-62663.137932,-64693.749212,-65302.096641,-51240.144818,-45917.501559,-65727.718559,-66845.775169,-63446.343058,-68300.672567,-70325.673559,187500.0,-187500.022352,-54557.411916,-54068.020471,-88667.582115,-52640.660422
1679629535.124817,0,-62655.717153,-64685.568474,-65007.455946,-51064.080127,-45796.846842,-65683.864437,-66843.495291,-63409.060348,-68302.460707,-70354.619068,187500.0,-187500.022352,-54514.138939,-54047.054535,-88551.040119,-52584.51284
1679629535.124834,0,-62661.483903,-64680.718145,-65004.863144,-51171.212038,-45884.733902,-65719.314303,-66836.409788,-63435.435407,-68301.700747,-70384.860979,187500.0,-187500.022352,-54504.304171,-54043.590014,-87918.798675,-52226.706115
1679629535.124851,0,-62666.580101,-64676.247797,-65031.819347,-51107.442511,-45970.519897,-65723.382321,-66757.709295,-63417.598715,-68309.635616,-70395.858037,187500.0,-187500.022352,-54511.389674,-54045.758134,-87802.167273,-52197.805309
1679629535.124868,0,-62677.286586,-64694.375061,-64419.158032,-51019.846024,-45692.978286,-65730.534879,-66752.300173,-63418.425729,-68323.828974,-70429.296247,187500.0,-187500.022352,-54498.448014,-54047.032183,-87014.044763,-51767.511877
1679629535.124888,0,-62664.143761,-64648.732799,-64461.335774,-51109.543575,-45845.730108,-65658.15993,-66739.805548,-63474.506256,-68322.174945,-70391.588854,187500.0,-187500.022352,-54539.172892,-54026.535633,-86342.799526,-51408.229936
1679629535.124909,0,-62640.965002,-64666.971823,-63800.640559,-50907.908488,-45579.721997,-65669.134637,-66684.999071,-63445.001953,-68314.93298,-70431.240848,187500.0,-187500.022352,-54466.172095,-54037.152712,-85754.769832,-51078.429947
1679629535.124931,0,-62670.558711,-64682.729802,-63422.314933,-50986.899553,-45547.021395,-65705.590332,-66666.715344,-63480.496523,-68331.517974,-70466.601308,187500.0,-187500.022352,-54475.805697,-54030.290726,-84626.967862,-50396.165299
1679629535.124949,0,-62669.038793,-64657.07,-63233.018009,-50939.647965,-45639.669375,-65693.699204,-66653.058428,-63451.998049,-68316.452899,-70466.10957,187500.0,-187500.022352,-54500.906706,-54027.00502,-84088.559042,-50083.844374
1679629535.124966,0,-62665.373107,-64632.684247,-62536.738817,-50858.08645,-45470.131394,-65714.329864,-66656.567652,-63460.156436,-68323.851326,-70470.937547,187500.0,-187500.022352,-54436.466627,-53974.478421,-83045.671349,-49436.157875
1679629535.124983,0,-62653.37022,-64605.593932,-62648.341077,-50978.987036,-45814.75059,-65666.586538,-66634.327666,-63499.741375,-68315.603532,-70459.873433,187500.0,-187500.022352,-54482.444165,-54002.619267,-82259.98518,-48947.727555
1679629535.125055,0,-62623.620048,-64584.337423,-62212.549116,-50794.272219,-45832.319061,-65676.577768,-66617.608561,-63445.09136,-68277.471456,-70503.302873,187500.0,-187500.022352,-54450.101191,-53981.429813,-81733.422784,-48577.537963
1679629535.125074,0,-62635.533528,-64568.91472,-62105.707777,-50880.326436,-46118.734314,-65721.32596,-66751.495511,-63485.950349,-68265.490921,-70538.685684,187500.0,-187500.022352,-54480.231342,-53954.965348,-80782.087837,-47922.676554
1679629535.125091,0,-62606.051577,-64526.871088,-62206.849421,-50866.334244,-46516.081275,-65725.68455,-66878.676936,-63555.28546,-68230.24222,-70534.215335,187500.0,-187500.022352,-54491.60838,-53931.607775,-80431.277207,-47670.638284
1679629535.125109,0,-62614.612295,-64505.480469,-61687.797211,-50763.583274,-46560.404785,-65790.169333,-67034.40154,-63629.672066,-68221.65915,-70560.54569,187500.0,-187500.022352,-54440.087609,-53903.288114,-79575.697133,-47168.819269
1679629535.125126,0,-62622.860089,-64465.336736,-61866.65587,-50928.315631,-47009.540738,-65779.865179,-67188.047431,-63726.097492,-68212.293769,-70583.657394,187500.0,-187500.022352,-54478.309092,-53911.893536,-78874.478206,-46819.03682
1679629535.125144,0,-62598.966074,-64429.842166,-61409.003903,-50786.002074,-47096.578431,-65839.521985,-67442.320876,-63811.637618,-68199.061537,-70697.338366,187500.0,-187500.022352,-54465.278025,-53839.272718,-78416.870942,-46643.843847
1679629535.125161,0,-62614.321722,-64407.043386,-61221.38336,-50944.386535,-47375.438795,-65842.628877,-67753.59127,-63915.684988,-68160.616536,-70772.104951,187500.0,-187500.022352,-54469.815429,-53743.137865,-77486.948965,-46222.915795
1679629535.125178,0,-62642.551976,-64369.201883,-61249.948889,-51010.167719,-47704.054142,-65886.192427,-68194.032394,-64018.905344,-68141.639905,-70853.867633,187500.0,-187500.022352,-54488.166212,-53659.698803,-77271.299335,-46256.354005
1679629535.125195,0,-62668.681165,-64329.147557,-60682.013414,-50931.847207,-47623.587861,-66016.860726,-68678.886435,-64091.190885,-68116.918876,-70883.438991,187500.0,-187500.022352,-54435.594909,-53557.819552,-76493.145703,-45991.19526
1679629535.125212,0,-62693.312787,-64253.531605,-60960.38204,-51194.4355,-48054.21657,-66003.7179,-69193.535351,-64317.547002,-68139.494138,-70903.779078,187500.0,-187500.022352,-54472.140011,-53530.013982,-75984.777628,-45906.504501
1679629535.125234,0,-62648.318726,-64175.166389,-60645.691829,-50990.878164,-48097.981286,-65956.622774,-69396.511542,-64341.776293,-68089.04625,-70889.809238,187500.0,-187500.022352,-54379.268513,-53403.927792,-75785.534177,-45989.563583
1679629535.125334,0,-62706.880296,-64138.084845,-60643.836635,-51094.187927,-48337.301414,-66050.455397,-69548.503405,-64479.843018,-68064.548739,-70820.764699,187500.0,-187500.022352,-54346.366745,-53368.075593,-75091.35605,-45691.681885
1679629535.125351,0,-62724.202898,-64102.880848,-60961.432572,-51174.810669,-48696.672761,-66088.118087,-69664.218386,-64514.868202,-68064.43698,-70831.471185,187500.0,-187500.022352,-54409.532775,-53440.316432,-75162.903984,-45818.103351
1679629535.12537,0,-62751.181454,-64104.154897,-60727.119234,-51076.686511,-48670.029482,-66050.321287,-69671.437999,-64579.576502,-68023.17566,-70800.335205,187500.0,-187500.022352,-54352.513475,-53407.258202,-74829.751233,-45722.169664
1679629535.125391,0,-62748.767465,-64057.685621,-61336.718361,-51325.081447,-49165.858229,-66037.111406,-69587.52955,-64603.492868,-68014.860811,-70786.991213,187500.0,-187500.022352,-54409.488071,-53407.36996,-74844.525736,-45760.748775
1679629535.125417,0,-62727.734474,-63988.283454,-61404.332388,-51191.663884,-49278.063986,-65984.093068,-69571.168074,-64589.67949,-67978.449819,-70743.137091,187500.0,-187500.022352,-54383.627103,-53327.238956,-75248.9582,-46005.902708
1679629535.125446,0,-62735.557584,-63980.527399,-61721.883621,-51298.125243,-49591.614257,-66051.930613,-69485.739706,-64567.439505,-67979.053316,-70791.327452,187500.0,-187500.022352,-54359.174294,-53410.655667,-75185.79217,-45944.882446
1679629535.12547,0,-62740.206747,-63968.50216,-62274.888131,-51356.932683,-50007.289649,-66020.705226,-69381.446467,-64513.370635,-67971.945461,-70821.323493,187500.0,-187500.022352,-54468.295511,-53442.484551,-75763.897689,-46252.755374
1679629535.125498,0,-62751.539082,-63958.89091,-62288.142715,-51284.624789,-50083.553801,-65928.772501,-69357.01601,-64552.106208,-67967.743333,-70807.890094,187500.0,-187500.022352,-54379.760251,-53373.775288,-75848.700207,-46262.500735
1679629535.125525,0,-62728.650895,-63903.570342,-63176.132819,-51562.702842,-50728.312222,-65947.413855,-69242.262154,-64519.763234,-67964.681144,-70790.992175,187500.0,-187500.022352,-54429.20231,-53436.829559,-76255.099625,-46512.393238
1679629535.125553,0,-62718.994942,-63856.944604,-63532.73255,-51466.120954,-50996.846079,-65935.902707,-69140.315847,-64463.258024,-67924.738577,-70694.589102,187500.0,-187500.022352,-54405.822385,-53411.370922,-77018.478753,-46982.092796
1679629535.125578,0,-62734.21648,-63892.081546,-64151.004154,-51628.238157,-51438.248329,-65923.564544,-69120.713368,-64494.259893,-67955.740447,-70807.308949,187500.0,-187500.022352,-54410.605658,-53394.115376,-77365.109606,-47203.643287
1679629535.605039,0,-62693.469249,-63846.551042,-65057.121522,-51717.354562,-52017.247917,-65872.423753,-69043.443387,-64465.336736,-67927.733711,-70775.815341,187500.0,-187500.022352,-54449.028307,-53405.805338,-78450.465614,-47874.866173
1679629535.605134,0,-62713.697578,-63852.474255,-65350.957555,-51663.285692,-52160.924931,-65912.098099,-69007.300616,-64443.923765,-67916.356673,-70723.176983,187500.0,-187500.022352,-54404.682446,-53383.587704,-79125.242427,-48301.158643
1679629535.605184,0,-62751.404971,-63839.510243,-66310.182668,-51908.283163,-52684.425138,-65914.981474,-68975.158808,-64453.803236,-67931.108824,-70781.157408,187500.0,-187500.022352,-54469.904836,-53400.798547,-79960.035379,-48870.412871
1679629535.605233,0,-62721.92302,-63825.003961,-66538.14811,-51725.959984,-52700.160766,-65882.392631,-68944.112235,-64404.897619,-67916.356673,-70778.922233,187500.0,-187500.022352,-54428.867034,-53412.242641,-80924.602559,-49524.693134
1679629535.605273,0,-62758.646936,-63849.07679,-66650.219756,-51725.468245,-52623.404875,-65859.504445,-68917.26779,-64404.718805,-67948.721999,-70816.584923,187500.0,-187500.022352,-54421.356847,-53464.880999,-81043.715005,-49639.067011
1679629535.605305,0,-62761.351497,-63842.661839,-66939.361923,-51741.583853,-52640.325146,-65836.929183,-68864.338859,-64337.574165,-67978.136894,-70803.509152,187500.0,-187500.022352,-54475.71629,-53521.475616,-81557.514555,-49975.39371
1679629535.605335,0,-62783.502076,-63850.931984,-66458.285327,-51579.198429,-52193.156146,-65869.339212,-68855.420513,-64259.901853,-67981.869636,-70817.210772,187500.0,-187500.022352,-54418.942859,-53520.939174,-81455.858821,-49912.674715
1679629535.605365,0,-62777.265939,-63839.242022,-66691.928112,-51777.659569,-52219.642963,-65845.35579,-68774.529549,-64226.798919,-68034.485642,-70738.242059,187500.0,-187500.022352,-54464.18279,-53606.702817,-81378.879413,-49863.746746
1679629535.605394,0,-62782.339785,-63871.920272,-66412.71012,-51659.977634,-51911.56887,-65835.588078,-68747.081607,-64272.910568,-68074.137637,-70785.046611,187500.0,-187500.022352,-54434.320859,-53620.918527,-81580.581555,-49993.20805
1679629535.60542,0,-62778.249416,-63878.983424,-66301.398432,-51744.511931,-51747.730583,-65791.108107,-68675.198397,-64273.715231,-68132.967428,-70748.881489,187500.0,-187500.022352,-54431.25867,-53681.290589,-81349.173945,-49798.390245
1679629535.605557,0,-62772.840294,-63869.819208,-66546.060627,-51795.22804,-51798.69256,-65790.705775,-68611.495925,-64206.347073,-68143.472748,-70696.533703,187500.0,-187500.022352,-54465.523894,-53701.720083,-81784.831796,-49969.179925
1679629535.605588,0,-62770.60512,-63880.950377,-65944.53048,-51576.337406,-51301.768577,-65785.229598,-68572.961518,-64136.721389,-68177.492103,-70694.432639,187500.0,-187500.022352,-54412.639667,-53681.871734,-81698.464656,-49889.920639
1679629535.605617,0,-62788.79944,-63924.469224,-64508.296789,-51176.509401,-50059.883304,-65807.246066,-68529.353264,-64051.337725,-68241.574555,-70726.105061,187500.0,-187500.022352,-54404.704798,-53701.541269,-80809.133447,-49295.274829
1679629535.60565,0,-62818.817832,-63978.851018,-61513.252439,-50625.27068,-47799.652553,-65849.021476,-68592.921626,-64048.521405,-68307.199276,-70704.04389,187500.0,-187500.022352,-54321.44455,-53673.869809,-78010.337414,-47424.366763
1679629535.605679,0,-62857.799275,-63997.134745,-60006.811918,-50899.414825,-46817.583956,-65898.508239,-68531.722549,-64101.696205,-68366.654917,-70774.362478,187500.0,-187500.022352,-54374.038204,-53762.226255,-75090.707849,-45548.608368
1679629535.605709,0,-62849.372667,-63991.300939,-58946.534568,-50935.35643,-46121.930614,-65872.088477,-68505.682767,-64093.291949,-68355.970783,-70757.129283,187500.0,-187500.022352,-54415.947725,-53778.498325,-73470.295783,-44521.232786
1679629535.60574,0,-62818.616667,-63940.361314,-58683.789812,-51235.205082,-46170.031568,-65876.201198,-68448.238784,-64148.456055,-68340.30221,-70715.487983,187500.0,-187500.022352,-54421.490958,-53760.013433,-72014.012577,-43620.792761
1679629535.605771,0,-62792.174553,-63919.149508,-59343.076866,-51468.847867,-46739.889293,-65856.777532,-68361.536367,-64100.824487,-68292.313015,-70662.559052,187500.0,-187500.022352,-54462.037022,-53782.499287,-72084.085296,-43726.628271
1679629535.605798,0,-62787.90537,-63916.914334,-59435.054294,-51414.331962,-46885.376797,-65860.398514,-68360.776408,-64077.086935,-68284.758125,-70695.393764,187500.0,-187500.022352,-54441.406362,-53800.917125,-72024.808469,-43709.484483
1679629535.605827,0,-62765.754791,-63892.841505,-60418.553402,-51704.122329,-47687.469147,-65819.651284,-68300.851381,-64110.323979,-68254.247994,-70682.541511,187500.0,-187500.022352,-54454.415077,-53747.094124,-72254.003257,-43928.643337
1679629535.60586,0,-62740.273802,-63867.941662,-61224.222031,-51675.445041,-48209.494139,-65812.699892,-68251.208156,-64058.110304,-68225.280133,-70635.871069,187500.0,-187500.022352,-54457.924301,-53802.347637,-73196.82219,-44579.146156
1679629535.605932,0,-62747.091084,-63861.77258,-61541.996782,-51654.054422,-48447.182589,-65814.108052,-68243.295639,-64065.218158,-68236.187784,-70599.951816,187500.0,-187500.022352,-54411.969115,-53778.833601,-73459.119911,-44798.059141
1679629535.605961,0,-62762.960823,-63881.263302,-62268.830808,-51744.936615,-48851.078612,-65831.587116,-68228.342322,-64040.161853,-68229.191688,-70621.722415,187500.0,-187500.022352,-54477.683243,-53790.389453,-74046.255534,-45229.894844
1679629535.605991,0,-62756.9035,-63889.779316,-62271.378907,-51601.416063,-48771.61816,-65835.185747,-68214.394833,-64040.25126,-68242.625087,-70652.254898,187500.0,-187500.022352,-54430.766932,-53778.252456,-74258.842976,-45384.434805
1679629535.606021,0,-62753.550739,-63874.267206,-62996.648311,-51819.434979,-49261.724861,-65866.858168,-68167.83615,-64064.72642,-68220.295694,-70648.768025,187500.0,-187500.022352,-54456.203217,-53799.710131,-74571.946212,-45654.041547
1679629535.606049,0,-62749.840349,-63875.340089,-63397.236275,-51741.427391,-49407.771159,-65835.364561,-68130.508736,-64033.568088,-68224.453118,-70654.579479,187500.0,-187500.022352,-54477.146802,-53779.750023,-75270.147654,-46144.014137
1679629535.606078,0,-62741.078465,-63866.958185,-63542.20969,-51725.132969,-49490.316151,-65854.117674,-68143.673914,-64046.308583,-68253.488034,-70630.417243,187500.0,-187500.022352,-54464.719232,-53798.525488,-75423.637083,-46268.401595
1679629535.606109,0,-62734.082369,-63843.779426,-63977.822838,-51751.351565,-49691.146575,-65816.432633,-68122.059777,-64016.714873,-68233.684389,-70641.414302,187500.0,-187500.022352,-54485.975741,-53786.477898,-75905.428935,-46588.053893
1679629535.606139,0,-62737.703352,-63853.368324,-63988.462268,-51672.494611,-49675.18743,-65832.078854,-68121.277466,-64019.195917,-68220.474508,-70684.307299,187500.0,-187500.022352,-54451.956386,-53779.392395,-76055.230326,-46661.389966
1679629535.606169,0,-62759.518654,-63853.390676,-64648.643392,-51848.134619,-50153.917093,-65855.548186,-68068.862625,-64023.97919,-68243.69797,-70658.580441,187500.0,-187500.022352,-54487.406252,-53834.04241,-76484.51793,-46929.923824
1679629535.606196,0,-62748.499244,-63857.123418,-64919.948866,-51708.547975,-50242.564111,-65791.242217,-68050.243622,-63969.619747,-68253.398627,-70656.300563,187500.0,-187500.022352,-54478.420851,-53811.668314,-77171.968183,-47313.703276
1679629535.606223,0,-62749.236852,-63855.916423,-64992.703795,-51662.659843,-50326.338449,-65772.399696,-68041.906421,-63983.567236,-68255.209119,-70672.66204,187500.0,-187500.022352,-54458.438391,-53735.38181,-77268.974753,-47259.835572
1679629535.606289,0,-62757.439942,-63865.840598,-65179.497323,-51618.179872,-50382.553087,-65779.395792,-68006.702424,-63958.868558,-68259.098322,-70659.832139,187500.0,-187500.022352,-54493.150651,-53781.649921,-77676.223537,-47361.714823
1679629535.606318,0,-62757.663459,-63862.53254,-64777.188275,-51501.660228,-50068.667539,-65809.548296,-68010.36811,-63945.010477,-68255.253822,-70690.275215,187500.0,-187500.022352,-54468.429621,-53759.119363,-77450.985009,-47036.921625
1679629535.606347,0,-62752.880186,-63846.238118,-65008.595885,-51659.79882,-50241.580634,-65787.487124,-68005.294264,-63979.14159,-68232.611505,-70653.95363,187500.0,-187500.022352,-54460.941787,-53743.853121,-77465.111311,-46942.68667
1679629535.606378,0,-62768.057021,-63899.032938,-64704.120422,-51526.627127,-49892.535793,-65754.853577,-67973.755953,-63935.488634,-68241.529851,-70662.134369,187500.0,-187500.022352,-54467.379089,-53738.689868,-77587.263595,-46942.17258
1679629535.606411,0,-62764.436038,-63885.510133,-64655.28186,-51685.860954,-49885.83027,-65817.9302,-67946.509176,-63991.211532,-68247.676581,-70697.740698,187500.0,-187500.022352,-54472.341177,-53834.824721,-77182.138226,-46669.458946
1679629535.606443,0,-62751.606137,-63889.95813,-64768.582853,-51699.920201,-49827.425161,-65838.359694,-67925.118557,-63935.332171,-68245.799034,-70673.891386,187500.0,-187500.022352,-54484.388767,-53810.349561,-77534.535829,-46949.72747
1679629535.606472,0,-62745.302945,-63884.817229,-64357.668383,-51658.614178,-49444.137447,-65841.623049,-67988.418697,-63988.976358,-68237.551241,-70655.384142,187500.0,-187500.022352,-54430.476359,-53811.333038,-77121.609702,-46734.010784
1679629535.606503,0,-62752.567262,-63875.362441,-64732.909469,-51891.787576,-49682.831726,-65822.087624,-67935.065083,-64008.847059,-68212.226714,-70707.486058,187500.0,-187500.022352,-54491.273104,-53806.393302,-77170.895299,-46890.696513
1679629535.606536,0,-62757.864625,-63895.411956,-64493.723451,-51756.447763,-49352.763516,-65858.54332,-67919.418862,-63951.023096,-68209.700967,-70734.151689,187500.0,-187500.022352,-54456.583197,-53869.961663,-77347.518784,-47135.403411
1679629535.606566,0,-62718.324389,-63839.577298,-64633.24304,-51924.734047,-49476.547477,-65832.078854,-67892.172085,-63990.652739,-68207.5552,-70704.088593,187500.0,-187500.022352,-54470.888313,-53840.122085,-77066.557356,-47144.075888
1679629535.606595,0,-62728.270916,-63844.47233,-64745.448797,-51821.133711,-49454.106325,-65818.5784,-67869.485065,-63927.106729,-68182.18597,-70682.340346,187500.0,-187500.022352,-54482.131241,-53808.851994,-77564.889498,-47633.266167
1679629535.60666,0,-62736.094026,-63882.000909,-64326.465348,-51778.263066,-49096.098434,-65869.786247,-67880.906806,-63954.755837,-68216.205325,-70707.821334,187500.0,-187500.022352,-54444.468551,-53826.711038,-77095.972251,-47415.493121
1679629535.606688,0,-62737.435131,-63881.75504,-64700.11946,-51989.419995,-49331.372897,-65824.926296,-67863.628908,-63984.483657,-68185.382269,-70718.416061,187500.0,-187500.022352,-54494.93879,-53855.656547,-77253.574402,-47702.355409
1679629535.606715,0,-62744.207709,-63896.417784,-64265.445085,-51821.62545,-48840.349774,-65857.202215,-67861.86312,-63952.163035,-68216.831174,-70752.524823,187500.0,-187500.022352,-54439.215891,-53869.447573,-77268.304201,-47920.508435
1679629535.606743,0,-62742.061942,-63882.671461,-64405.143488,-52003.255725,-48961.742099,-65862.633689,-67860.767884,-64031.511728,-68214.171316,-70749.239117,187500.0,-187500.022352,-54464.987453,-53838.088076,-76866.889222,-47895.429778
1679629535.606774,0,-62741.972535,-63892.975616,-64361.60229,-51878.912971,-48783.799861,-65844.864052,-67843.489986,-63956.923957,-68197.027528,-70736.319809,187500.0,-187500.022352,-54467.960235,-53827.627459,-77302.412963,-48387.771653
1679629535.606806,0,-62740.072637,-63882.582054,-63865.147694,-51815.501072,-48373.712405,-65892.026233,-67876.101181,-64003.080309,-68234.243182,-70749.574393,187500.0,-187500.022352,-54441.696935,-53855.410678,-76617.331996,-48093.42153
1679629535.606836,0,-62717.765596,-63865.013583,-64192.198419,-51960.452135,-48604.40476,-65862.544282,-67797.333634,-64006.120146,-68216.227676,-70703.462744,187500.0,-187500.022352,-54484.567581,-53874.700233,-76718.563046,-48323.890367
1679629535.606866,0,-62755.830616,-63920.088282,-63657.768209,-51747.082382,-48084.033797,-65883.241997,-67807.995416,-63960.768457,-68213.053729,-70767.768713,187500.0,-187500.022352,-54449.274176,-53815.915145,-76590.576958,-48354.80283
1679629535.606897,0,-62759.004564,-63893.914389,-63830.234269,-51979.674635,-48289.513384,-65875.485942,-67812.622227,-64039.513652,-68242.826252,-70785.53835,187500.0,-187500.022352,-54476.811525,-53873.426184,-76084.756981,-48159.0239
1679629535.606938,0,-62771.275672,-63918.411901,-63890.226351,-51882.980988,-48256.566913,-65844.551127,-67775.071296,-63976.437029,-68249.107093,-70749.932021,187500.0,-187500.022352,-54463.199313,-53859.456344,-76554.791815,-48612.764312
1679629535.607008,0,-62756.00943,-63886.426554,-63542.299097,-51846.167665,-48001.712322,-65880.135105,-67777.641747,-63986.025928,-68257.578404,-70756.548137,187500.0,-187500.022352,-54430.722228,-53877.628312,-75952.077025,-48322.102227
1679629535.607034,0,-62751.695544,-63880.570397,-64053.483493,-52007.882536,-48424.495569,-65845.244032,-67727.84206,-64014.546754,-68249.241203,-70703.261578,187500.0,-187500.022352,-54484.187601,-53840.166788,-76234.625427,-48649.711746
1679629535.607061,0,-62782.362137,-63919.127157,-63568.115362,-51758.995862,-47957.746441,-65858.275099,-67770.37743,-63986.607073,-68274.990413,-70719.93598,187500.0,-187500.022352,-54435.796074,-53830.421428,-76259.659381,-48762.588055
1679629535.60709,0,-62765.419515,-63884.169028,-63796.192562,-51993.599772,-48221.653488,-65897.927093,-67741.878956,-64063.362964,-68282.232378,-70751.563698,187500.0,-187500.022352,-54456.560845,-53861.915035,-75837.345521,-48586.143385
1679629535.607119,0,-62766.134771,-63897.378909,-63859.582109,-51878.935323,-48219.351258,-65869.272157,-67709.535981,-64007.70712,-68258.874805,-70726.373282,187500.0,-187500.022352,-54456.650252,-53822.173634,-76428.347996,-49068.069347
1679629535.607147,0,-62772.572073,-63904.844392,-63543.75196,-51871.536895,-48031.708363,-65918.870678,-67741.655438,-64038.731341,-68285.898064,-70760.035009,187500.0,-187500.022352,-54452.179903,-53828.745047,-75867.363914,-48750.696927
1679629535.607176,0,-62746.331125,-63880.72686,-64049.415475,-52003.211022,-48484.197078,-65870.166227,-67679.53994,-64034.976248,-68251.074046,-70723.355797,187500.0,-187500.022352,-54489.842592,-53886.345492,-76264.465006,-49082.352112
1679629536.08325,0,-62777.578864,-63917.070796,-63440.665715,-51718.315687,-47976.56661,-65886.304186,-67704.640949,-63981.756745,-68282.38884,-70729.211954,187500.0,-187500.022352,-54438.120656,-53848.056954,-76155.880231,-49021.331849
1679629536.083311,0,-62745.213538,-63870.199188,-63728.712646,-51969.057556,-48344.744545,-65881.878541,-67662.10558,-64053.662307,-68286.501561,-70744.053512,187500.0,-187500.022352,-54446.927243,-53866.139515,-75688.214682,-48708.31802
1679629536.083351,0,-62745.995849,-63879.45281,-63658.192892,-51780.341778,-48252.990634,-65834.179918,-67630.679027,-63972.21255,-68266.563805,-70695.416116,187500.0,-187500.022352,-54437.964194,-53813.165881,-76224.365976,-49060.42505
1679629536.083388,0,-62744.99002,-63869.998022,-63326.31419,-51799.631333,-48059.737451,-65859.839721,-67656.495292,-64041.681771,-68278.790209,-70713.811602,187500.0,-187500.022352,-54420.082798,-53799.687779,-75533.987645,-48557.264931
1679629536.083462,0,-62723.621753,-63851.624888,-63815.146841,-51944.537693,-48512.114407,-65857.179863,-67592.882227,-64053.729362,-68249.151796,-70700.914645,187500.0,-187500.022352,-54460.695918,-53820.251384,-75950.892383,-48844.484847
1679629536.083482,0,-62740.094988,-63864.387734,-63204.161907,-51670.035919,-48019.593718,-65848.261517,-67643.1513,-64026.214364,-68261.512311,-70672.505578,187500.0,-187500.022352,-54399.899173,-53743.361383,-75854.489309,-48762.90098
1679629536.083502,0,-62716.580953,-63846.729856,-63506.223381,-51926.544538,-48406.368304,-65855.905814,-67642.279582,-64134.285049,-68243.854433,-70709.274198,187500.0,-187500.022352,-54441.853397,-53788.623665,-75456.874127,-48498.457491
1679629536.083523,0,-62704.131032,-63862.800761,-63303.180135,-51691.694759,-48206.163729,-65819.964209,-67574.352631,-63997.827649,-68198.659205,-70662.179072,187500.0,-187500.022352,-54390.198516,-53790.389453,-76019.065204,-48886.573182
1679629536.083548,0,-62704.958046,-63856.698734,-62752.299041,-51669.052442,-47838.678698,-65830.961267,-67597.196114,-64014.591457,-68219.155755,-70669.063409,187500.0,-187500.022352,-54364.672824,-53768.775316,-75068.959602,-48224.849787
1679629536.083568,0,-62688.060127,-63838.70558,-63016.653123,-51762.974472,-48118.231966,-65793.030357,-67546.502357,-63996.866524,-68189.383231,-70646.77872,187500.0,-187500.022352,-54411.65619,-53772.061023,-75255.10493,-48347.896141
1679629536.083589,0,-62724.448767,-63880.503342,-62124.416187,-51483.845888,-47413.81674,-65831.989447,-67559.444017,-63937.23207,-68198.793316,-70688.464724,187500.0,-187500.022352,-54359.688384,-53732.94547,-74717.72429,-47936.534636
1679629536.083609,0,-62698.923075,-63842.013638,-62571.898111,-51856.60593,-47922.87772,-65839.209061,-67566.082485,-64043.939298,-68202.883685,-70691.191636,187500.0,-187500.022352,-54418.987563,-53782.543991,-74154.281515,-47539.142971
1679629536.08363,0,-62695.838534,-63858.285708,-62570.266434,-51668.963035,-47896.972048,-65799.892342,-67512.393595,-63949.346715,-68161.667068,-70658.55809,187500.0,-187500.022352,-54397.328722,-53730.442075,-74843.654018,-47971.738633
1679629536.083649,0,-62687.277816,-63841.00781,-62361.769362,-51718.60626,-47790.600096,-65831.810633,-67546.591764,-63992.172658,-68191.372537,-70665.956517,187500.0,-187500.022352,-54364.918693,-53728.363362,-74185.551606,-47485.856412
1679629536.083669,0,-62657.393534,-63839.73376,-62943.361752,-51849.766296,-48279.678616,-65818.82427,-67496.456801,-63989.669262,-68129.838184,-70617.0509,187500.0,-187500.022352,-54400.279152,-53698.724949,-74739.047854,-47833.515445
1679629536.083716,0,-62694.475078,-63877.999947,-62354.974431,-51578.214953,-47729.691592,-65762.855502,-67511.164249,-63936.874442,-68149.686533,-70683.212064,187500.0,-187500.022352,-54323.903242,-53730.486778,-74641.303675,-47730.451552
1679629536.083737,0,-62659.896929,-63836.425702,-62805.20562,-51870.44166,-48156.229932,-65797.053671,-67483.828066,-64012.825669,-68156.146187,-70654.646534,187500.0,-187500.022352,-54373.032376,-53775.10086,-74305.178142,-47473.764118
1679629536.083757,0,-62671.832761,-63870.22154,-62601.290655,-51638.78818,-47884.477423,-65780.893359,-67496.143877,-63936.069779,-68141.57285,-70646.711665,187500.0,-187500.022352,-54338.118951,-53749.686927,-74865.625783,-47834.297756
1679629536.083777,0,-62684.863828,-63876.435325,-62287.338053,-51708.167995,-47652.846295,-65802.596903,-67461.901005,-63952.833587,-68187.215112,-70656.814653,187500.0,-187500.022352,-54333.201567,-53736.365287,-73946.499699,-47194.412016
1679629536.083797,0,-62665.149589,-63868.612214,-62772.750887,-51826.296964,-48039.442067,-65767.459961,-67427.524022,-63928.403131,-68136.968391,-70602.119935,187500.0,-187500.022352,-54382.554219,-53742.489665,-74394.383954,-47494.595944
1679629536.083816,0,-62694.720947,-63919.395378,-62081.746707,-51567.240246,-47413.526167,-65801.009929,-67456.670696,-63901.469279,-68162.181158,-70695.505523,187500.0,-187500.022352,-54320.058742,-53738.71222,-74107.164038,-47288.177584
1679629536.083837,0,-62656.275947,-63876.971767,-62510.006131,-51874.867305,-47825.602928,-65820.254781,-67446.523004,-63988.574027,-68176.41922,-70674.718401,187500.0,-187500.022352,-54389.818536,-53770.74227,-73722.021129,-47042.464857
1679629536.083858,0,-62679.298243,-63909.113575,-62250.189453,-51622.784331,-47533.331517,-65783.84379,-67432.396702,-63902.497459,-68123.266771,-70643.694179,187500.0,-187500.022352,-54367.556199,-53731.358496,-74228.936342,-47366.855725
1679629536.083879,0,-62673.48679,-63895.903694,-61947.256261,-51709.732617,-47313.658573,-65822.646418,-67474.39563,-63962.891872,-68166.226824,-70630.774871,187500.0,-187500.022352,-54323.120931,-53710.973705,-73337.839346,-46768.566581
1679629536.0839,0,-62648.899871,-63895.099031,-62463.603909,-51837.070505,-47720.907357,-65784.044955,-67437.62701,-63966.848131,-68132.721559,-70678.42879,187500.0,-187500.022352,-54376.094565,-53773.983273,-73794.731354,-47097.606611
1679629536.083944,0,-62672.659775,-63918.255439,-61725.079921,-51540.976946,-47048.678642,-65792.404508,-67431.033245,-63886.135982,-68157.934327,-70666.939994,187500.0,-187500.022352,-54314.135529,-53728.609232,-73512.473525,-46897.558498
1679629536.083966,0,-62674.693784,-63896.171915,-62106.803013,-51866.485401,-47421.103408,-65801.591075,-67468.76299,-63978.761611,-68188.131534,-70640.1179,187500.0,-187500.022352,-54387.583362,-53778.185401,-72980.881987,-46543.998604
1679629536.083996,0,-62688.149534,-63952.006573,-61912.387539,-51631.322698,-47171.434423,-65796.874857,-67453.00501,-63903.838563,-68130.799309,-70669.264575,187500.0,-187500.022352,-54340.711753,-53767.188342,-73511.355938,-46886.606143
1679629536.084016,0,-62685.221456,-63959.226186,-61574.116239,-51697.685027,-46917.384495,-65819.114842,-67455.396647,-63941.389494,-68160.79535,-70711.48702,187500.0,-187500.022352,-54370.931312,-53777.738366,-72532.885973,-46204.52031
1679629536.084036,0,-62687.143706,-63947.379762,-62086.641739,-51808.728493,-47333.618681,-65786.056612,-67403.585303,-63911.549915,-68157.889623,-70657.574613,187500.0,-187500.022352,-54388.142155,-53775.793764,-72957.323248,-46469.88022
1679629536.084056,0,-62732.026009,-64019.978228,-61323.866108,-51520.39099,-46662.351091,-65834.045808,-67423.14308,-63867.338165,-68174.49697,-70706.793154,187500.0,-187500.022352,-54347.171408,-53757.264168,-72626.293913,-46213.505711
1679629536.084077,0,-62726.035741,-63977.644024,-61627.69337,-51810.762502,-47010.568918,-65846.003991,-67411.36371,-63956.946308,-68200.715566,-70710.101212,187500.0,-187500.022352,-54429.112903,-53815.19989,-72030.418757,-45815.175273
1679629536.084097,0,-62724.247602,-64015.127899,-61260.20834,-51548.643595,-46665.41328,-65846.965116,-67370.884701,-63870.914444,-68186.321042,-70675.232491,187500.0,-187500.022352,-54395.898211,-53761.376889,-72350.585145,-46011.825921
1679629536.084117,0,-62766.715916,-64021.386388,-60846.030515,-51639.704602,-46392.632591,-65886.10302,-67430.608562,-63943.222337,-68248.347133,-70707.195485,187500.0,-187500.022352,-54387.315141,-53763.008566,-71204.879428,-45229.917196
1679629536.084136,0,-62736.921041,-64000.66632,-61417.631676,-51806.605078,-46903.794635,-65820.299485,-67390.867161,-63952.766532,-68194.457077,-70651.472587,187500.0,-187500.022352,-54433.985583,-53788.109575,-71537.339275,-45452.719385
1679629536.084153,0,-62761.575015,-64041.391199,-60792.989825,-51539.769952,-46349.449021,-65823.719302,-67407.698024,-63903.860915,-68208.359862,-70679.076991,187500.0,-187500.022352,-54375.289902,-53724.608269,-71292.185341,-45272.072586
1679629536.08419,0,-62721.766558,-63973.844227,-61482.831714,-51913.669934,-47003.461063,-65849.647325,-67370.683535,-63992.574989,-68228.275267,-70713.096346,187500.0,-187500.022352,-54442.166322,-53810.818948,-70935.406796,-45040.150886
1679629536.084206,0,-62725.76752,-63988.752841,-61550.915128,-51677.724919,-46963.69731,-65813.996293,-67363.754495,-63907.191325,-68188.958548,-70660.189767,187500.0,-187500.022352,-54415.232469,-53794.211602,-71815.551438,-45624.850169
1679629536.084222,0,-62722.727683,-64005.002559,-61284.594093,-51706.893946,-46755.289645,-65822.646418,-67413.688292,-63964.188273,-68225.391892,-70691.593968,187500.0,-187500.022352,-54358.168466,-53775.212619,-71074.054667,-45113.978698
1679629536.084238,0,-62715.105738,-63985.087155,-61901.658702,-51852.090878,-47263.635369,-65812.766947,-67346.431893,-63936.807386,-68184.555255,-70676.484189,187500.0,-187500.022352,-54433.449141,-53781.046424,-71581.595729,-45451.020652
1679629536.084256,0,-62733.233003,-64019.419434,-61214.20845,-51557.740755,-46619.145169,-65849.423808,-67360.312326,-63868.008717,-68209.656264,-70693.739735,187500.0,-187500.022352,-54382.241295,-53740.612118,-71428.329817,-45321.648755
1679629536.084273,0,-62701.471174,-63973.866579,-61574.295053,-51859.690471,-46975.119051,-65826.468566,-67364.402695,-63959.382648,-68198.525095,-70682.787381,187500.0,-187500.022352,-54423.681429,-53753.19615,-70871.056124,-44958.857591
1679629536.084289,0,-62721.92302,-64012.088062,-61403.706539,-51628.461674,-46751.847476,-65799.378252,-67336.842994,-63876.50238,-68176.68744,-70670.918604,187500.0,-187500.022352,-54397.082853,-53742.690831,-71459.465797,-45345.878046
1679629536.084306,0,-62738.329201,-64004.644931,-61259.001346,-51758.951158,-46643.575626,-65852.687162,-67369.141265,-63955.113465,-68235.785453,-70724.719253,187500.0,-187500.022352,-54410.560955,-53791.75291,-70607.95374,-44760.552914
1679629536.084321,0,-62696.0397,-63974.872407,-62027.946058,-51908.75255,-47258.516819,-65793.946778,-67321.66616,-63960.857864,-68187.930368,-70666.828235,187500.0,-187500.022352,-54443.865054,-53768.104764,-71311.944283,-45224.508074
1679629536.084338,0,-62735.624639,-64023.867431,-61465.643223,-51623.164311,-46695.409321,-65829.039017,-67337.781768,-63900.888133,-68205.454136,-70712.358738,187500.0,-187500.022352,-54370.752498,-53724.317697,-71344.8237,-45210.895861
1679629536.084355,0,-62702.879334,-63992.709099,-61970.479723,-51941.162579,-47159.699757,-65828.703741,-67346.5213,-64004.75669,-68217.81465,-70724.316922,187500.0,-187500.022352,-54405.129481,-53793.563401,-70987.285195,-44969.005283
1679629536.084392,0,-62708.84725,-64005.159021,-61934.202842,-51707.095111,-47028.450314,-65776.937101,-67298.21918,-63903.726805,-68187.19276,-70655.764122,187500.0,-187500.022352,-54398.736882,-53746.7812,-71757.883937,-45459.782536
1679629536.084408,0,-62712.959971,-64007.215382,-61570.472905,-51726.250556,-46731.216816,-65828.189651,-67326.292971,-63942.194157,-68198.256874,-70716.672625,187500.0,-187500.022352,-54387.18103,-53771.099898,-70957.445616,-44907.068599
1679629536.084425,0,-62692.821049,-63990.697442,-62220.908668,-51896.526146,-47260.997863,-65826.893249,-67274.705145,-63936.673276,-68170.92069,-70706.167305,187500.0,-187500.022352,-54422.16151,-53729.033915,-71432.956628,-45221.423533
1679629536.084441,0,-62725.745168,-64033.903364,-61578.854809,-51588.273238,-46630.209283,-65832.950572,-67290.753697,-63869.416877,-68180.174313,-70715.286817,187500.0,-187500.022352,-54345.338565,-53749.753982,-71399.518418,-45162.973721
1679629536.084458,0,-62708.869601,-63996.330082,-61955.101723,-51880.768166,-46990.407645,-65831.877688,-67277.543816,-63941.925936,-68209.47745,-70728.027311,187500.0,-187500.022352,-54405.621219,-53777.336034,-70885.137723,-44789.051388
1679629536.084475,0,-62725.678113,-64009.450556,-61868.220492,-51655.082602,-46835.353593,-65799.445307,-67206.554676,-63844.181757,-68192.110144,-70684.150837,187500.0,-187500.022352,-54377.905056,-53727.424589,-71544.313019,-45167.891105
1679629536.084491,0,-62744.632392,-64007.751823,-61348.36362,-51610.826148,-46429.2671,-65813.616313,-67230.024008,-63874.669537,-68228.297618,-70703.552151,187500.0,-187500.022352,-54360.78362,-53764.908465,-70605.65151,-44453.23878
1679629536.084507,0,-62714.770462,-63991.747974,-61771.571549,-51718.203928,-46813.314773,-65803.759194,-67179.643176,-63864.164217,-68199.150944,-70722.282913,187500.0,-187500.022352,-54400.145042,-53728.855101,-70822.932818,-44495.774149
1679629536.084524,0,-62762.916119,-64034.462158,-60898.646521,-51389.543878,-46055.545933,-65831.922392,-67193.143629,-63807.971931,-68220.854488,-70713.476326,187500.0,-187500.022352,-54344.444495,-53711.979534,-70449.748093,-44091.587554
1679629536.084542,0,-62738.776235,-64000.375748,-61056.941576,-51647.974747,-46299.716389,-65809.615351,-67171.305975,-63893.199133,-68224.184897,-70735.112814,187500.0,-187500.022352,-54401.173222,-53762.695642,-69577.739486,-43370.810851
1679629536.084592,0,-62754.98125,-64015.932562,-60780.115221,-51384.291218,-46058.228142,-65780.51338,-67113.32555,-63784.480248,-68186.835132,-70664.861281,187500.0,-187500.022352,-54380.00612,-53707.486833,-69914.021482,-43413.547386
1679629536.084631,0,-62782.317434,-64036.40676,-60121.230498,-51344.08043,-45601.246727,-65811.381139,-67170.166036,-63845.835787,-68230.555145,-70733.794061,187500.0,-187500.022352,-54380.475507,-53693.047606,-68673.007926,-42355.460507
1679629536.084657,0,-62744.788855,-63999.749899,-60506.105185,-51492.428958,-46008.495511,-65820.567706,-67119.382873,-63847.869795,-68194.725298,-70701.048756,187500.0,-187500.022352,-54399.720359,-53709.722007,-68642.989533,-42104.651583
1679629536.563282,0,-62790.878152,-64045.682734,-59635.504739,-51158.851523,-45278.979275,-65795.220827,-67124.389663,-63772.611472,-68206.839944,-70690.699898,187500.0,-187500.022352,-54370.506629,-53667.566617,-68189.316176,-41529.921178
1679629536.563343,0,-62776.327166,-63999.727547,-59812.038816,-51447.256082,-45558.376081,-65800.898171,-67134.671466,-63861.414952,-68206.996406,-70703.865076,187500.0,-187500.022352,-54394.579458,-53720.853176,-67204.990054,-40632.833914
1679629536.563375,0,-62784.999643,-64025.812033,-59708.55024,-51282.635484,-45444.516295,-65801.680482,-67134.112672,-63794.158553,-68178.810856,-70653.104264,187500.0,-187500.022352,-54388.633894,-53702.18947,-67559.175796,-40627.156571
1679629536.563408,0,-62787.726556,-64033.344571,-59186.324082,-51266.274007,-45054.053671,-65809.838868,-67099.646282,-63804.373301,-68222.441461,-70698.03127,187500.0,-187500.022352,-54358.749611,-53676.507315,-66430.502108,-39635.253207
1679629536.56343,0,-62773.68966,-64024.515632,-59758.52874,-51465.070422,-45564.455755,-65787.68829,-67082.681308,-63785.53078,-68184.175275,-70686.900102,187500.0,-187500.022352,-54408.973981,-53703.86585,-66482.447563,-39470.342037
1679629536.563451,0,-62815.398015,-64069.554397,-59125.259116,-51197.318875,-44980.1141,-65805.368519,-67093.365442,-63734.613506,-68211.91379,-70722.148803,187500.0,-187500.022352,-54360.493047,-53698.389673,-66252.716333,-39119.82198
1679629536.563473,0,-62790.676986,-64023.129824,-59407.405187,-51478.615579,-45305.153168,-65823.83106,-67070.387849,-63822.969952,-68229.169336,-70713.722195,187500.0,-187500.022352,-54412.237336,-53721.657839,-65453.485007,-38441.938274
1679629536.563493,0,-62802.501059,-64050.622469,-59519.588592,-51362.833543,-45330.656508,-65821.573534,-67039.14011,-63759.848626,-68217.658188,-70671.857378,187500.0,-187500.022352,-54419.993391,-53705.765749,-65954.3876,-38642.187553
1679629536.563572,0,-62797.963655,-64039.915984,-59077.046404,-51331.630508,-44974.615571,-65825.395683,-67065.269299,-63785.933111,-68250.895232,-70682.116828,187500.0,-187500.022352,-54347.529036,-53677.691958,-65080.702612,-37948.657626
1679629536.563592,0,-62795.750832,-64038.284306,-59654.302556,-51554.4774,-45481.955467,-65837.01859,-67036.346142,-63822.2994,-68246.961325,-70709.251846,187500.0,-187500.022352,-54428.285888,-53739.986269,-65116.443052,-37917.812218
1679629536.563613,0,-62806.949056,-64054.534025,-59418.491652,-51381.072567,-45181.637428,-65833.017627,-67052.528805,-63800.484097,-68292.782401,-70746.489852,187500.0,-187500.022352,-54390.734958,-53740.053325,-65251.08996,-37940.007501
1679629536.563635,0,-62808.826603,-64052.902347,-59475.533304,-51519.049885,-45285.036598,-65821.528831,-67045.242136,-63863.650127,-68312.451936,-70747.138053,187500.0,-187500.022352,-54380.140231,-53723.200109,-64617.172136,-37494.291364
1679629536.56366,0,-62797.941303,-64045.079237,-59897.645998,-51554.008013,-45542.573397,-65805.88261,-66994.660138,-63821.673551,-68297.744488,-70761.71139,187500.0,-187500.022352,-54394.87003,-53760.080488,-65086.82699,-37796.464598
1679629536.563681,0,-62803.193963,-64053.081161,-59614.203526,-51461.918826,-45268.183383,-65863.840683,-67004.383147,-63818.432548,-68330.221573,-70801.586902,187500.0,-187500.022352,-54364.426954,-53783.438061,-64816.773214,-37608.575834
1679629536.563701,0,-62785.625492,-64020.469966,-60230.1729,-51694.958114,-45784.799252,-65814.0857,-66987.731098,-63874.535426,-68293.385898,-70818.462469,187500.0,-187500.022352,-54370.193704,-53763.857933,-64910.739948,-37704.017783
1679629536.563722,0,-62767.609986,-64021.587553,-60112.334503,-51509.036304,-45544.227427,-65828.703741,-66956.3716,-63810.140051,-68271.123561,-70845.083397,187500.0,-187500.022352,-54363.041146,-53721.948412,-65348.476511,-38021.993699
1679629536.563743,0,-62738.083331,-63998.98994,-60346.424323,-51710.559632,-45769.153031,-65823.071101,-66998.571694,-63905.85022,-68283.998166,-70917.748918,187500.0,-187500.022352,-54346.81378,-53755.990119,-65000.862181,-37851.293427
1679629536.563763,0,-62715.105738,-63978.6275,-60921.333542,-51770.082327,-46144.036489,-65842.092436,-66931.918792,-63880.704508,-68211.287941,-70861.891909,187500.0,-187500.022352,-54376.921579,-53750.491589,-65861.717267,-38522.73983
1679629536.563784,0,-62716.53625,-63989.490448,-60685.992025,-51661.050518,-45884.71155,-65810.040034,-66994.637787,-63899.971712,-68196.178162,-70902.661491,187500.0,-187500.022352,-54320.751646,-53719.10974,-65858.073933,-38633.582131
1679629536.563833,0,-62688.440107,-63954.420561,-61464.346822,-51935.351126,-46524.262014,-65867.148741,-66951.342458,-63895.099031,-68157.397885,-70910.797526,187500.0,-187500.022352,-54391.78549,-53765.355499,-66314.675369,-39106.813265
1679629536.563855,0,-62709.070767,-63995.994806,-61277.709756,-51703.943515,-46234.203426,-65775.931272,-66984.847723,-63888.460563,-68134.576754,-70886.679993,187500.0,-187500.022352,-54336.107294,-53757.666499,-67035.42972,-39743.748575
1679629536.563876,0,-62697.604322,-63968.837436,-61650.693315,-51953.321928,-46562.39409,-65847.747427,-66999.152839,-63977.59932,-68118.528201,-70880.712078,187500.0,-187500.022352,-54356.961472,-53758.806438,-66932.008199,-39863.889201
1679629536.563897,0,-62695.592665,-63979.163942,-62170.036098,-51933.22771,-46867.540105,-65805.592037,-66981.025574,-63910.164107,-68102.546704,-70859.544976,187500.0,-187500.022352,-54388.477431,-53728.184548,-68123.51264,-40869.337722
1679629536.563918,0,-62699.057186,-63971.005556,-61972.737249,-51868.765279,-46641.161637,-65864.712401,-67001.72329,-63914.075662,-68119.802251,-70878.05222,187500.0,-187500.022352,-54348.937195,-53774.318549,-68127.915934,-41067.664751
1679629536.563938,0,-62686.383746,-63940.070741,-62867.187007,-52129.431323,-47350.13662,-65811.26938,-67024.320903,-63937.053256,-68095.57296,-70823.178687,187500.0,-187500.022352,-54411.678542,-53772.552761,-68848.692638,-41779.590163
1679629536.563959,0,-62705.829764,-63982.33789,-62759.161026,-51899.007189,-47086.676608,-65816.633799,-67062.452979,-63849.121493,-68101.317358,-70840.188365,187500.0,-187500.022352,-54340.488236,-53719.512072,-69647.61104,-42532.396916
1679629536.563985,0,-62681.265197,-63942.641192,-63211.873259,-52144.272881,-47447.232598,-65852.329535,-67110.017492,-63974.805352,-68111.152126,-70857.309801,187500.0,-187500.022352,-54378.553257,-53788.400148,-69634.132938,-42750.952274
1679629536.564015,0,-62680.572293,-63946.508044,-63746.638745,-52108.197166,-47731.703249,-65835.051636,-67111.336245,-63945.524567,-68094.388317,-70803.531504,187500.0,-187500.022352,-54393.84185,-53734.510092,-70897.051203,-43818.762162
1679629536.564039,0,-62697.96195,-63969.999727,-63514.672341,-52027.395609,-47439.923577,-65847.814482,-67179.129085,-63934.192232,-68125.479594,-70905.075479,187500.0,-187500.022352,-54378.843829,-53777.850125,-70937.597267,-44037.473981
1679629536.564059,0,-62687.590741,-63947.804445,-64314.931847,-52251.963586,-48064.051338,-65837.957363,-67216.34474,-63955.225224,-68116.829469,-70858.069761,187500.0,-187500.022352,-54431.705705,-53783.840392,-71642.884212,-44717.235233
1679629536.564105,0,-62712.982322,-63979.365108,-63962.73541,-51913.558175,-47609.886242,-65813.57161,-67253.158063,-63856.117589,-68127.73712,-70827.336112,187500.0,-187500.022352,-54370.506629,-53735.694735,-72343.052607,-45340.938311
1679629536.564122,0,-62705.65095,-63961.796637,-64132.854537,-52073.730776,-47783.022855,-65850.742561,-67315.854706,-63973.777172,-68166.450342,-70894.816028,187500.0,-187500.022352,-54391.807841,-53763.030918,-72024.920228,-45178.262315
1679629536.564139,0,-62691.614055,-63940.495424,-64309.254504,-51964.654263,-47839.617472,-65794.729089,-67286.886845,-63951.067799,-68139.538841,-70852.347714,187500.0,-187500.022352,-54400.346208,-53732.610194,-72954.685742,-45836.744706
1679629536.564157,0,-62716.312732,-63942.082398,-63761.05562,-51856.941206,-47367.325111,-65852.508349,-67317.508735,-63927.419654,-68170.071324,-70867.211624,187500.0,-187500.022352,-54347.953719,-53724.429455,-72514.669301,-45550.754136
1679629536.564173,0,-62673.464438,-63931.577078,-64244.590908,-52031.240109,-47803.787625,-65778.836999,-67345.090788,-63951.090151,-68149.77594,-70839.406054,187500.0,-187500.022352,-54404.593039,-53744.948357,-72803.431487,-45756.97133
1679629536.564191,0,-62725.879279,-63991.502105,-63568.450638,-51716.68401,-47163.521905,-65807.313121,-67368.224844,-63886.62772,-68140.54467,-70893.229055,187500.0,-187500.022352,-54345.763248,-53705.430473,-72981.798408,-45857.241256
1679629536.564208,0,-62713.161136,-63925.676218,-63538.722818,-51900.057721,-47231.582967,-65823.294619,-67387.492047,-63983.991919,-68153.061647,-70905.567218,187500.0,-187500.022352,-54393.126594,-53759.812267,-72290.570711,-45373.281285
1679629536.564224,0,-62722.303,-63929.118386,-63341.312211,-51733.224301,-47045.728212,-65848.395628,-67344.286125,-63876.167104,-68130.620495,-70842.110615,187500.0,-187500.022352,-54381.637798,-53688.264333,-72762.214871,-45629.834608
1679629536.564241,0,-62757.059962,-64010.881068,-62474.556264,-51623.968974,-46372.337207,-65816.320874,-67426.361731,-63915.461471,-68162.516434,-70934.803299,187500.0,-187500.022352,-54373.680577,-53697.920286,-71743.914097,-44848.708194
1679629536.564257,0,-62700.063014,-63961.662526,-62748.611003,-51805.040455,-46704.394723,-65787.956511,-67409.799088,-63951.045448,-68117.969408,-70901.096869,187500.0,-187500.022352,-54424.642554,-53741.550892,-71602.24874,-44684.199355
1679629536.5643,0,-62753.416628,-64028.829518,-61833.217661,-51477.252123,-45932.879559,-65851.994258,-67430.943838,-63863.359554,-68135.068492,-70893.385517,187500.0,-187500.022352,-54362.236483,-53736.968784,-71351.216298,-44416.33605
1679629536.564318,0,-62742.352515,-63967.317518,-61693.072223,-51715.745236,-45966.451879,-65849.267346,-67472.339269,-63980.817971,-68169.289013,-70948.817843,187500.0,-187500.022352,-54387.158678,-53745.440095,-70267.111989,-43599.804473
1679629536.564335,0,-62750.421494,-63985.377727,-61515.44291,-51590.195488,-45851.407451,-65802.574551,-67427.926353,-63908.554782,-68147.563117,-70918.397119,187500.0,-187500.022352,-54394.959437,-53729.972688,-70518.971445,-43701.437855
1679629536.564353,0,-62747.202843,-63974.939463,-60734.964697,-51525.822464,-45288.925801,-65841.824215,-67493.036985,-63936.114482,-68194.591188,-70969.828483,187500.0,-187500.022352,-54369.970187,-53716.874566,-69414.080014,-42875.920877
1679629536.564372,0,-62706.343854,-63920.222392,-61077.840457,-51730.206815,-45701.717818,-65819.740691,-67454.659039,-63971.005556,-68169.423124,-70927.159003,187500.0,-187500.022352,-54401.15087,-53743.271976,-69235.914258,-42724.308994
1679629536.56439,0,-62739.379733,-63939.087264,-60249.171883,-51428.279451,-45005.908013,-65829.821328,-67447.506481,-63896.060156,-68179.570816,-70951.321238,187500.0,-187500.022352,-54342.745762,-53705.497528,-68984.971223,-42497.863471
1679629536.564407,0,-62738.552718,-63892.036842,-60164.43642,-51689.705454,-45087.35777,-65856.643421,-67515.075805,-64024.448577,-68209.388043,-70967.280384,187500.0,-187500.022352,-54375.625178,-53717.679229,-67924.26919,-41757.752509
1679629536.564425,0,-62745.481759,-63896.127212,-60059.405572,-51578.639636,-45030.897263,-65814.465679,-67443.706685,-63943.401151,-68144.411521,-70955.94805,187500.0,-187500.022352,-54382.755385,-53729.123322,-68225.771871,-41955.118412
1679629536.564441,0,-62758.266957,-63896.75306,-59338.114779,-51515.294792,-44501.920879,-65839.633744,-67481.928168,-63963.942404,-68180.733106,-71005.680681,187500.0,-187500.022352,-54324.819663,-53716.516938,-67168.623766,-41218.807247
1679629536.564458,0,-62736.295192,-63846.975726,-59815.503337,-51752.424449,-45011.227728,-65818.667807,-67497.395575,-64012.490393,-68156.101484,-70977.361021,187500.0,-187500.022352,-54405.285943,-53744.322508,-67102.797878,-41198.511863
1679629536.564476,0,-62750.24268,-63862.443133,-59153.824646,-51460.68948,-44438.419573,-65817.840793,-67511.968912,-63942.127102,-68139.091806,-70929.841212,187500.0,-187500.022352,-54316.70598,-53700.893068,-67018.688264,-41131.166057
1679629536.564513,0,-62733.791796,-63811.123527,-59328.615287,-51739.348679,-44703.779483,-65813.32574,-67543.931907,-64053.528196,-68152.614612,-70956.08216,187500.0,-187500.022352,-54377.033338,-53715.376999,-66186.152838,-40584.509442
1679629536.56453,0,-62751.963765,-63839.286725,-59481.165943,-51656.267244,-44818.332174,-65817.103185,-67540.802662,-63995.547771,-68103.284312,-70954.741055,187500.0,-187500.022352,-54391.271399,-53736.901729,-66791.996871,-41028.258625
1679629536.564546,0,-62752.947241,-63815.973856,-58979.88337,-51608.836843,-44414.391448,-65845.109921,-67615.72571,-64036.227946,-68144.076245,-70981.317279,187500.0,-187500.022352,-54334.721486,-53752.994985,-66020.437005,-40538.621311
1679629536.564563,0,-62717.922058,-63777.350042,-59698.156678,-51864.496096,-45080.629895,-65806.821383,-67576.274881,-64093.984854,-68102.904332,-70931.875221,187500.0,-187500.022352,-54391.830193,-53737.728743,-66203.587199,-40728.87936
1679629536.56458,0,-62764.257224,-63820.444205,-59230.938164,-51574.482211,-44617.389991,-65838.784377,-67589.596521,-63968.725678,-68109.855725,-70935.227982,187500.0,-187500.022352,-54330.005268,-53716.561641,-66432.290248,-40933.956615
1679629536.564597,0,-62730.461386,-63763.380201,-59544.890767,-51867.62534,-44948.240512,-65844.417017,-67623.839393,-64094.610702,-68138.801234,-70951.500052,187500.0,-187500.022352,-54376.586303,-53738.376944,-65835.453968,-40612.650289
1679629536.564614,0,-62710.031892,-63746.035248,-59875.003681,-51797.105586,-45165.834745,-65790.795182,-67597.330224,-64045.168644,-68076.417515,-70949.488395,187500.0,-187500.022352,-54366.371556,-53742.243796,-66714.793946,-41326.207379
1679629536.564631,0,-62708.511973,-63744.090646,-59519.007447,-51754.346699,-44841.935616,-65834.939877,-67631.349579,-64052.857644,-68092.399012,-70921.168735,187500.0,-187500.022352,-54301.685608,-53743.83077,-66235.706655,-41126.896873
1679629536.564647,0,-62699.839497,-63706.159735,-60392.334806,-52052.854246,-45588.148604,-65827.697912,-67603.767527,-64111.598028,-68060.301907,-70944.950991,187500.0,-187500.022352,-54405.777682,-53763.276787,-66700.421774,-41624.647871
1679629536.564668,0,-62716.200974,-63749.343306,-60111.574544,-51811.969496,-45229.268995,-65849.043828,-67575.157294,-64023.420396,-68091.907274,-70927.069596,187500.0,-187500.022352,-54344.288033,-53718.483891,-67243.703275,-42181.586287
1679629537.042969,0,-62708.690787,-63731.976,-60610.867812,-52148.854989,-45644.922035,-65869.31686,-67632.467166,-64151.384133,-68102.412594,-70988.961576,187500.0,-187500.022352,-54384.36471,-53755.319566,-66961.557205,-42230.402497
1679629537.043084,0,-62695.056223,-63725.225773,-61136.491434,-52102.922154,-45967.23419,-65818.82427,-67575.403163,-64088.1734,-68054.110474,-70943.743997,187500.0,-187500.022352,-54380.877838,-53777.380738,-68203.129554,-43361.087842
1679629537.043106,0,-62720.090177,-63729.673771,-60907.587219,-52074.915418,-45698.476815,-65869.83095,-67607.209695,-64115.219011,-68096.019995,-70989.453314,187500.0,-187500.022352,-54344.086867,-53762.67329,-68010.211648,-43503.088475
1679629537.043125,0,-62679.410002,-63690.602921,-61897.680092,-52336.766104,-46495.160043,-65868.869825,-67539.998,-64137.838976,-68073.064753,-70978.791532,187500.0,-187500.022352,-54417.378237,-53798.860764,-68752.647192,-44328.270176
1679629537.043146,0,-62720.00077,-63728.355018,-61447.761827,-51857.432944,-45996.202051,-65835.141043,-67532.867793,-64005.851925,-68077.289233,-70945.822709,187500.0,-187500.022352,-54362.83998,-53744.791895,-69392.1306,-44940.39505
1679629537.043166,0,-62704.10868,-63695.006215,-61588.980149,-51991.833984,-46171.529135,-65833.330552,-67558.371134,-64089.626263,-68097.025823,-71019.091728,187500.0,-187500.022352,-54390.198516,-53756.615967,-68793.081497,-44496.332943
1679629537.043185,0,-62699.727738,-63699.342453,-61832.815329,-51944.671803,-46301.459825,-65813.862182,-67524.195316,-64037.636106,-68062.112398,-70969.53791,187500.0,-187500.022352,-54395.160603,-53746.02124,-69629.640237,-45028.080944
1679629537.043204,0,-62715.016331,-63712.552334,-61394.676434,-51892.592238,-45897.65321,-65849.177939,-67544.714218,-64062.42419,-68098.90337,-70984.602986,187500.0,-187500.022352,-54354.458076,-53752.950281,-69166.221519,-44761.201115
1679629537.043224,0,-62681.421659,-63684.187971,-62055.77398,-52076.569447,-46482.754824,-65843.768816,-67506.895066,-64095.236551,-68079.256186,-70954.741055,187500.0,-187500.022352,-54428.554109,-53757.711203,-69527.470413,-45066.660055
1679629537.043243,0,-62691.614055,-63721.269515,-61512.1125,-51757.163019,-45949.643367,-65868.266328,-67481.861112,-63993.022024,-68084.799419,-70956.998582,187500.0,-187500.022352,-54346.210283,-53714.170005,-69828.615466,-45241.763621
1679629537.043262,0,-62674.291453,-63696.772003,-61710.148956,-52007.301391,-46180.715702,-65863.416,-67518.808546,-64106.390072,-68091.907274,-71018.108251,187500.0,-187500.022352,-54384.588228,-53769.110592,-69210.366215,-44817.751028
1679629537.043307,0,-62658.175845,-63698.291921,-61936.147444,-51888.881849,-46329.511265,-65831.676523,-67450.836891,-64018.905344,-68048.679,-70975.148198,187500.0,-187500.022352,-54393.305408,-53709.967877,-70068.941423,-45388.167547
1679629537.043326,0,-62688.775383,-63690.781735,-61346.888405,-51791.00356,-45832.69904,-65895.736622,-67490.064203,-64045.928603,-68114.214315,-70980.892596,187500.0,-187500.022352,-54371.735975,-53739.382772,-69435.425929,-44916.366925
1679629537.043344,0,-62657.438237,-63676.051936,-62026.224974,-52039.152627,-46452.132935,-65835.073988,-67443.125539,-64082.361946,-68069.756695,-70981.026707,187500.0,-187500.022352,-54412.483205,-53736.097066,-69666.677078,-45073.656151
1679629537.043364,0,-62687.434278,-63729.629067,-61486.318587,-51723.188367,-45931.203178,-65831.318895,-67445.338362,-64003.750861,-68071.857759,-70976.757524,187500.0,-187500.022352,-54339.303594,-53738.33224,-69978.595671,-45256.225199
1679629537.043383,0,-62672.413906,-63701.59998,-61658.270557,-51990.336417,-46148.52919,-65894.954311,-67457.922394,-64114.973142,-68119.601085,-71022.19862,187500.0,-187500.022352,-54383.381234,-53759.566398,-69309.429146,-44791.621839
1679629537.043402,0,-62663.36145,-63689.887665,-61899.378824,-51905.332733,-46312.255718,-65843.969982,-67432.016722,-64060.345478,-68079.658518,-70966.743942,187500.0,-187500.022352,-54411.343266,-53755.856008,-70151.911098,-45358.953817
1679629537.04342,0,-62683.09804,-63715.256895,-61302.162564,-51790.914153,-45804.960526,-65886.371241,-67452.625031,-64057.529158,-68109.565152,-71025.461975,187500.0,-187500.022352,-54355.262739,-53722.216633,-69523.58121,-44898.686695
1679629537.043439,0,-62665.507217,-63665.85954,-62018.759491,-52057.324595,-46452.803487,-65860.398514,-67360.692306,-64069.710859,-68066.605099,-71005.099536,187500.0,-187500.022352,-54425.8719,-53736.432342,-69754.184157,-45070.124575
1679629537.043458,0,-62698.632502,-63735.082893,-61476.215598,-51728.508082,-45925.97287,-65861.761971,-67391.202437,-63976.772306,-68078.965614,-70993.029594,187500.0,-187500.022352,-54366.662129,-53673.601588,-70112.102641,-45296.435988
1679629537.043477,0,-62669.932863,-63690.625273,-61657.778818,-51989.710568,-46147.925693,-65875.08361,-67424.774757,-64090.341519,-68095.394146,-71003.289044,187500.0,-187500.022352,-54401.866126,-53728.028086,-69427.826336,-44823.897758
1679629537.043495,0,-62663.227339,-63702.561105,-61916.030874,-51883.606837,-46318.916538,-65846.562785,-67379.378364,-64014.50205,-68046.980267,-70947.521442,187500.0,-187500.022352,-54399.6086,-53716.516938,-70289.888417,-45411.636878
1679629537.043609,0,-62688.596569,-63729.606715,-61364.836856,-51792.456423,-45848.926407,-65891.690957,-67423.008969,-64023.621562,-68081.491361,-71045.109158,187500.0,-187500.022352,-54363.018794,-53752.436191,-69682.72563,-44965.361949
1679629537.043629,0,-62652.543205,-63673.816761,-62142.722266,-52080.145726,-46543.596273,-65863.147779,-67371.398791,-64076.952824,-68064.749904,-70997.34348,187500.0,-187500.022352,-54424.910775,-53757.353575,-69941.089444,-45143.214779
1679629537.043647,0,-62666.624804,-63710.585381,-61683.840952,-51742.477923,-46079.842279,-65863.192482,-67370.884701,-63974.492428,-68049.126035,-70998.371661,187500.0,-187500.022352,-54347.193759,-53680.731795,-70390.672432,-45409.334649
1679629537.043666,0,-62646.776455,-63686.467849,-61892.002748,-51993.510365,-46305.818415,-65884.292529,-67416.079928,-64079.59033,-68082.25132,-70996.44941,187500.0,-187500.022352,-54368.405565,-53738.600461,-69750.473768,-44940.976195
1679629537.043684,0,-62649.570423,-63691.027604,-62255.710334,-51917.939117,-46564.763375,-65824.59102,-67320.302703,-63989.177524,-68031.691674,-70996.002376,187500.0,-187500.022352,-54392.81367,-53710.90665,-70679.076991,-45551.223523
1679629537.043703,0,-62688.194238,-63716.106262,-61657.264728,-51780.766461,-46053.71309,-65894.172,-67371.465846,-63992.016195,-68078.540931,-71008.184076,187500.0,-187500.022352,-54357.609672,-53705.184603,-70142.657476,-45136.68807
1679629537.043723,0,-62644.764798,-63702.963436,-62324.039617,-52048.920339,-46663.334568,-65885.946558,-67342.520337,-64042.799359,-68063.744076,-71022.511545,187500.0,-187500.022352,-54408.638705,-53746.065944,-70314.27417,-45241.383641
1679629537.043741,0,-62670.29049,-63727.326837,-61710.417177,-51681.144736,-46086.570154,-65841.310125,-67345.403712,-63956.186349,-68044.879203,-71025.841954,187500.0,-187500.022352,-54359.688384,-53671.858152,-70625.790432,-45404.819596
1679629537.04376,0,-62660.276909,-63679.359994,-61800.673521,-51941.453152,-46244.038194,-65891.132163,-67376.092658,-64074.449429,-68081.044326,-71029.798213,187500.0,-187500.022352,-54389.505612,-53713.790025,-69812.991597,-44801.478958
1679629537.043778,0,-62645.122426,-63709.624256,-62052.778846,-51841.36204,-46423.992088,-65817.863145,-67339.659314,-64001.135707,-68010.166944,-70978.299794,187500.0,-187500.022352,-54382.218943,-53711.666609,-70631.333665,-45329.203645
1679629537.043796,0,-62668.681165,-63723.77291,-61365.865036,-51698.601448,-45853.977901,-65889.209913,-67365.654393,-63997.090041,-68064.638146,-71027.116004,187500.0,-187500.022352,-54331.43578,-53711.331333,-69957.294459,-44799.087322
1679629537.043841,0,-62637.947516,-63677.616558,-62030.494157,-51972.477373,-46476.67515,-65856.554014,-67343.056779,-64054.176397,-68038.732474,-71014.666082,187500.0,-187500.022352,-54426.698914,-53727.648107,-70026.361349,-44805.748141
1679629537.043859,0,-62667.787095,-63718.341436,-61409.875621,-51597.079825,-45905.386913,-65833.978752,-67339.771073,-63936.270945,-68032.049302,-70996.494114,187500.0,-187500.022352,-54345.226806,-53685.40331,-70315.592923,-44890.707122
1679629537.043878,0,-62648.184615,-63671.760401,-61458.669479,-51834.522406,-46033.909444,-65868.981584,-67368.917748,-64041.055923,-68063.252337,-71001.456201,187500.0,-187500.022352,-54368.651434,-53679.681263,-69412.023653,-44158.441622
1679629537.043896,0,-62624.603525,-63685.774945,-61749.577433,-51759.778173,-46255.504639,-65827.563802,-67311.585523,-63967.675146,-68018.593552,-70967.436846,187500.0,-187500.022352,-54390.332626,-53698.277914,-70163.154025,-44571.010121
1679629537.043914,0,-62667.965909,-63726.745692,-61038.143759,-51591.134261,-45663.406928,-65863.728924,-67362.838073,-63966.468151,-68047.404951,-71015.224876,187500.0,-187500.022352,-54323.076227,-53655.787248,-69464.751418,-43941.160314
1679629537.043934,0,-62618.657961,-63677.705965,-61658.114095,-51861.746831,-46251.615435,-65827.384988,-67321.330884,-64023.956838,-68026.282552,-71022.735062,187500.0,-187500.022352,-54397.127556,-53680.508277,-69430.597953,-43788.654362
1679629537.043971,0,-62662.869711,-63713.379349,-61009.444119,-51488.450347,-45672.66055,-65852.553052,-67307.83043,-63893.981444,-68014.391424,-71012.386204,187500.0,-187500.022352,-54322.003343,-53687.526725,-69651.20967,-43782.038245
1679629537.043998,0,-62635.622935,-63688.79243,-60975.625929,-51717.779245,-45750.355214,-65852.553052,-67354.657335,-64025.968495,-68065.286346,-71015.381338,187500.0,-187500.022352,-54344.824474,-53677.960179,-68628.617362,-42927.374593
1679629537.044021,0,-62649.637479,-63694.358014,-61209.156955,-51639.101105,-45951.789135,-65831.944744,-67288.049136,-63946.150416,-68005.651892,-71013.436736,187500.0,-187500.022352,-54365.857466,-53698.434377,-69280.438933,-43229.167846
1679629537.044038,0,-62694.698595,-63718.229677,-60411.60201,-51474.368748,-45322.274604,-65861.471398,-67327.857593,-63939.534299,-68042.644029,-71050.250059,187500.0,-187500.022352,-54323.389152,-53690.141879,-68466.276642,-42499.025762
1679629537.044054,0,-62673.062107,-63688.27834,-61016.663732,-51783.001635,-45921.569576,-65868.825122,-67303.650654,-64020.000579,-68036.340837,-70995.264768,187500.0,-187500.022352,-54413.82431,-53701.675379,-68336.524765,-42277.139995
1679629537.044089,0,-62697.201991,-63728.51148,-60438.848786,-51433.040372,-45396.035361,-65816.924371,-67308.500982,-63911.192287,-68018.034758,-71043.388074,187500.0,-187500.022352,-54334.632079,-53634.039001,-68601.281178,-42316.255548
1679629537.044104,0,-62692.396366,-63692.569875,-60406.774033,-51655.172009,-45461.190696,-65828.234354,-67345.046085,-64005.293132,-68059.474893,-71041.085844,187500.0,-187500.022352,-54351.55235,-53656.770725,-67611.568285,-41507.390619
1679629537.044119,0,-62681.846342,-63690.021776,-60637.309925,-51573.096403,-45652.499277,-65795.153772,-67276.515636,-63926.838508,-67996.487677,-71021.371606,187500.0,-187500.022352,-54379.648492,-53652.546245,-68239.786415,-41811.396696
1679629537.044134,0,-62714.636351,-63708.663131,-59833.451788,-51409.571041,-45005.349219,-65859.213872,-67321.889677,-63927.598468,-68048.477834,-71030.513469,187500.0,-187500.022352,-54306.893564,-53635.156588,-67407.3851,-41088.988315
1679629537.04415,0,-62684.439145,-63668.631157,-60449.39881,-51717.1981,-45604.532433,-65840.192537,-67298.174476,-63996.419489,-68026.662532,-71031.206373,187500.0,-187500.022352,-54387.873934,-53682.229362,-67243.591516,-40886.794434
1679629537.044166,0,-62703.371072,-63708.886648,-59840.045552,-51352.752906,-45060.334511,-65824.613371,-67280.114267,-63891.075717,-68002.187372,-71045.958524,187500.0,-187500.022352,-54332.08398,-53634.396629,-67473.50156,-40931.095592
1679629537.044181,0,-62718.704369,-63689.17241,-59741.988449,-51556.690223,-45080.160508,-65852.418942,-67332.551459,-63987.568198,-68024.226192,-71039.945905,187500.0,-187500.022352,-54349.540693,-53659.430582,-66398.695576,-40075.269648
1679629537.044196,0,-62697.134936,-63683.495067,-59947.043353,-51492.138385,-45266.99874,-65808.698929,-67255.728514,-63902.363348,-67999.795735,-71041.66699,187500.0,-187500.022352,-54371.043071,-53620.180919,-66941.328876,-40305.224395
1679629537.044211,0,-62727.220384,-63719.682541,-59122.308686,-51322.153368,-44606.23647,-65835.833947,-67337.42414,-63925.765625,-68039.403026,-71018.667044,187500.0,-187500.022352,-54324.998477,-53587.346207,-66070.259043,-39543.119316
1679629537.044227,0,-62695.190334,-63674.979052,-59768.564673,-51661.475201,-45238.254397,-65861.516102,-67320.749738,-64015.306713,-68013.139726,-71097.881627,187500.0,-187500.022352,-54399.519193,-53697.540307,-65885.723041,-39313.857474
1679629537.044261,2,-62705.829764,-63687.339567,-59235.989658,-51323.405066,-44740.726917,-65803.088642,-67269.877168,-63870.109781,-67990.229188,-71033.665065,187500.0,-187500.022352,-54321.936288,-53637.659983,-66180.564902,-39405.477274
1679629537.044276,2,-62704.868639,-63699.409509,-59284.850572,-51591.983627,-44858.162982,-65868.66866,-67316.994645,-63996.464192,-68010.725738,-71085.945795,187500.0,-187500.022352,-54342.097562,-53653.015632,-65210.454489,-38680.766664
1679629537.044291,2,-62693.424546,-63673.637947,-59701.442385,-51570.593008,-45188.745283,-65821.618238,-67264.848025,-63935.846261,-68001.539171,-71036.771957,187500.0,-187500.022352,-54383.604751,-53667.521914,-65975.800571,-39176.528356
1679629537.044307,2,-62718.279686,-63700.281227,-59033.192281,-51406.307686,-44619.893386,-65835.878651,-67308.903314,-63924.357465,-68006.434203,-71059.034295,187500.0,-187500.022352,-54314.560212,-53619.599774,-65354.936165,-38705.554748
1679629537.044323,2,-62685.064994,-63643.507796,-59758.90872,-51725.557652,-45278.621647,-65849.602622,-67304.701186,-64000.331044,-67983.702479,-71024.523202,187500.0,-187500.022352,-54387.002216,-53671.679338,-65317.5864,-38687.092207
1679629537.044338,2,-62721.900668,-63699.856544,-59280.559037,-51365.985139,-44806.932784,-65804.675615,-67279.175494,-63865.326508,-67992.285549,-71059.168405,187500.0,-187500.022352,-54318.739989,-53600.891364,-65732.121853,-38922.031393
1679629537.52289,2,-62706.366206,-63668.184122,-59295.98174,-51589.077901,-44886.974381,-65857.425732,-67293.905293,-63979.923902,-68002.544999,-71093.880665,187500.0,-187500.022352,-54329.155902,-53645.661908,-64796.209609,-38239.05149
1679629537.522939,2,-62679.432354,-63684.791468,-59715.121652,-51554.745621,-45220.015373,-65825.708607,-67270.570072,-63924.782148,-67976.885197,-71044.215088,187500.0,-187500.022352,-54395.272362,-53688.063167,-65561.198063,-38722.922054
1679629537.522979,2,-62717.117395,-63704.192782,-58998.502374,-51364.778145,-44605.878843,-65870.970889,-67264.356287,-63886.426554,-67993.425488,-71050.540632,187500.0,-187500.022352,-54317.644753,-53623.667791,-64954.929346,-38229.95433
1679629537.523017,2,-62689.37888,-63647.061723,-59726.476339,-51693.505251,-45264.428289,-65872.222587,-67269.720706,-64003.370881,-67961.730714,-71041.219955,187500.0,-187500.022352,-54365.164562,-53647.472399,-64874.865398,-38127.44923
1679629537.523041,2,-62742.844253,-63701.175296,-59291.62315,-51338.5819,-44829.888026,-65811.358787,-67269.072505,-63881.710336,-67964.278813,-71087.085734,187500.0,-187500.022352,-54330.02762,-53643.829065,-65356.009049,-38367.417558
1679629537.523113,2,-62741.324334,-63680.052898,-59262.945862,-51512.344362,-44867.863639,-65849.289697,-67296.699261,-63958.689744,-68018.504145,-71094.528865,187500.0,-187500.022352,-54353.541655,-53620.471492,-64408.608008,-37602.406752
1679629537.523135,2,-62757.685811,-63698.694253,-59741.407304,-51503.627181,-45245.451658,-65829.553107,-67261.227043,-63922.390511,-67955.695743,-71019.583466,187500.0,-187500.022352,-54391.53962,-53636.810617,-65176.658651,-38005.274594
1679629537.523156,2,-62797.091937,-63751.511425,-59025.078598,-51309.815205,-44624.67666,-65845.489901,-67307.226933,-63911.236991,-68029.858831,-71122.222677,187500.0,-187500.022352,-54305.597163,-53597.091567,-64609.952523,-37468.832728
1679629537.523183,2,-62797.874248,-63684.344433,-59964.2989,-51731.927899,-45455.938036,-65843.053561,-67265.943261,-64004.332006,-68032.40693,-71020.432832,187500.0,-187500.022352,-54426.631859,-53624.897137,-64588.673662,-37375.156567
1679629537.523209,2,-62877.08883,-63803.948617,-59589.594256,-51341.062944,-45027.209226,-65805.547333,-67267.239662,-63867.91931,-68031.937543,-71056.754417,187500.0,-187500.022352,-54379.849658,-53565.597959,-65387.167381,-37839.983444
1679629537.52323,2,-62854.893548,-63776.165399,-59628.441588,-51617.218747,-45092.252802,-65870.188578,-67300.387299,-63993.670224,-68083.368907,-71090.550255,187500.0,-187500.022352,-54358.213169,-53631.401495,-64415.738215,-37146.520572
1679629537.523255,2,-62819.018998,-63752.718419,-60439.049952,-51712.817158,-45693.112396,-65826.736787,-67239.098816,-63961.103733,-68080.84316,-71033.754472,187500.0,-187500.022352,-54437.226586,-53669.555923,-65517.053368,-37921.813181
1679629537.523276,2,-62861.822589,-63778.266463,-59737.071066,-51442.249291,-45033.043031,-65832.145909,-67282.192979,-63914.008607,-68110.794498,-71080.49197,187500.0,-187500.022352,-54353.273434,-53623.511329,-65304.287112,-37798.878586
1679629537.523298,2,-62823.578754,-63722.834137,-60263.320537,-51747.887045,-45495.8359,-65847.52391,-67267.954918,-63986.271797,-68105.139506,-71071.931252,187500.0,-187500.022352,-54416.327705,-53694.299304,-65098.293435,-37721.116867
1679629537.523319,2,-62830.999533,-63766.330632,-59729.739693,-51416.500082,-44961.696263,-65850.049657,-67242.205708,-63872.389659,-68104.491306,-71056.866176,187500.0,-187500.022352,-54377.010986,-53651.406306,-65465.487893,-38002.01124
1679629537.52334,2,-62835.894565,-63748.225719,-59592.544686,-51617.106988,-44905.146349,-65888.047622,-67294.620549,-63990.362166,-68162.091751,-71105.682386,187500.0,-187500.022352,-54375.692234,-53669.488867,-64432.546727,-37337.963264
1679629537.523393,2,-62790.8558,-63717.670884,-59970.378574,-51624.550119,-45200.837576,-65841.935973,-67234.449653,-63940.920107,-68119.936361,-71065.851577,187500.0,-187500.022352,-54391.003178,-53659.631748,-65081.95431,-37827.980557
1679629537.523414,2,-62824.271658,-63741.162567,-59133.50691,-51420.545747,-44479.815004,-65855.749351,-67262.434037,-63917.026093,-68169.870158,-71053.513414,187500.0,-187500.022352,-54321.645715,-53629.255727,-64446.740084,-37433.516971
1679629537.523437,2,-62806.166745,-63709.04311,-59806.249715,-51819.792607,-45094.175052,-65842.159491,-67247.883051,-64022.883954,-68160.124798,-71080.559025,187500.0,-187500.022352,-54406.962324,-53673.802754,-64206.525887,-37386.913584
1679629537.523458,2,-62819.063702,-63754.484207,-59433.824949,-51526.045981,-44692.491852,-65847.345096,-67209.393347,-63891.992139,-68131.492213,-71102.709604,187500.0,-187500.022352,-54350.345355,-53667.365452,-64804.658568,-37936.721794
1679629537.52348,2,-62800.355291,-63723.25882,-59416.055312,-51780.766461,-44713.413085,-65889.612244,-67268.49136,-64016.312542,-68172.261795,-71129.866973,187500.0,-187500.022352,-54349.607748,-53694.321656,-63920.915296,-37509.267033
1679629537.523501,2,-62797.337806,-63703.499878,-60103.058529,-51885.842012,-45228.129056,-65861.672564,-67220.546868,-64000.174582,-68112.604989,-71087.711583,187500.0,-187500.022352,-54385.325835,-53703.508223,-64867.154046,-38390.261041
1679629537.523522,2,-62829.434911,-63748.829216,-59622.361913,-51728.843359,-44755.076737,-65916.277875,-67229.062883,-63963.562425,-68149.954754,-71104.006005,187500.0,-187500.022352,-54328.306535,-53674.585065,-64734.161166,-38541.425889
1679629537.523546,2,-62780.506942,-63670.151075,-60574.322709,-52107.057227,-45547.513133,-65873.586044,-67220.256295,-64069.263824,-68140.812891,-71087.398659,187500.0,-187500.022352,-54399.519193,-53704.24583,-64959.578509,-38989.086627
1679629537.523567,2,-62796.689605,-63718.967285,-60404.494155,-51710.447873,-45292.256211,-65835.699837,-67190.97551,-63923.128119,-68095.729422,-71089.834999,187500.0,-187500.022352,-54344.109219,-53678.317807,-65934.069864,-39854.52382
1679629537.523588,2,-62802.948094,-63709.914829,-60456.819589,-51880.835221,-45350.169581,-65888.829933,-67254.543871,-64017.117204,-68154.715676,-71131.051616,187500.0,-187500.022352,-54354.659242,-53670.986434,-65290.227865,-39515.35845
1679629537.523636,2,-62777.936492,-63687.361918,-61142.369943,-51941.833132,-45857.688291,-65856.75518,-67179.039678,-63978.202817,-68109.520448,-71096.361708,187500.0,-187500.022352,-54420.10515,-53708.626772,-66293.016528,-40314.567425
1679629537.523659,2,-62797.65073,-63719.637837,-60726.605144,-51791.025912,-45421.78457,-65907.247771,-67219.496336,-63968.524512,-68133.101539,-71117.349996,187500.0,-187500.022352,-54327.703038,-53696.489775,-66257.745476,-40410.255243
1679629537.523679,2,-62771.365079,-63673.41443,-61604.715777,-52154.800553,-46149.982053,-65883.286701,-67204.967702,-64056.255109,-68128.25121,-71114.220752,187500.0,-187500.022352,-54393.84185,-53741.886168,-66520.333769,-40778.813157
1679629537.5237,2,-62783.725594,-63696.593189,-61445.347839,-51811.410703,-45888.399588,-65840.326648,-67156.8891,-63933.1417,-68101.272655,-71101.480258,187500.0,-187500.022352,-54346.657317,-53660.883446,-67518.182697,-41654.867429
1679629537.523724,2,-62774.58373,-63698.537791,-61216.510679,-51858.796401,-45715.620603,-65893.948483,-67216.657664,-64011.618675,-68136.901335,-71145.379084,187500.0,-187500.022352,-54329.826454,-53698.85906,-66818.081357,-41284.8343
1679629537.523748,2,-62777.668271,-63683.629177,-61649.285155,-51892.458128,-46049.063927,-65846.473378,-67157.649059,-63971.564349,-68103.485477,-71117.171182,187500.0,-187500.022352,-54386.711644,-53700.982475,-67484.52097,-41787.189756
1679629537.52377,2,-62818.52726,-63742.704838,-60786.932503,-51610.46852,-45294.066703,-65903.179753,-67183.487676,-63911.639322,-68129.949943,-71137.533621,187500.0,-187500.022352,-54313.554384,-53668.974777,-67140.058236,-41565.214582
1679629537.523796,2,-62790.632283,-63709.93718,-61209.872211,-51951.712603,-45719.599214,-65908.14184,-67183.532379,-64002.767384,-68147.116083,-71153.939802,187500.0,-187500.022352,-54390.89142,-53714.415874,-66736.855118,-41319.837131
1679629537.523817,2,-62775.589559,-63712.038244,-60930.78833,-51702.043617,-45414.453198,-65870.277985,-67143.120425,-63884.839581,-68111.621512,-71136.728959,187500.0,-187500.022352,-54329.714695,-53636.251823,-67335.010151,-41768.66016
1679629537.523838,2,-62777.310643,-63711.300637,-60678.817115,-51828.28627,-45259.287388,-65912.612189,-67207.404042,-63962.914224,-68134.375588,-71179.398439,187500.0,-187500.022352,-54326.294878,-53697.294438,-66478.401897,-41258.638055
1679629537.52386,2,-62764.033707,-63687.071346,-61254.285127,-51929.249099,-45727.019993,-65881.945596,-67142.874556,-63932.359389,-68088.174532,-71134.851412,187500.0,-187500.022352,-54382.621274,-53721.300211,-67189.165019,-41846.801859
1679629537.523909,2,-62796.779012,-63728.757349,-60541.376238,-51696.075701,-45095.985543,-65935.388617,-67174.524626,-63902.76568,-68120.763376,-71153.179843,187500.0,-187500.022352,-54314.806082,-53681.268237,-66942.468815,-41748.118907
1679629537.523937,2,-62763.005526,-63690.312349,-61195.432984,-52056.028194,-45691.100739,-65898.374128,-67181.386612,-63970.647928,-68121.724501,-71154.520947,187500.0,-187500.022352,-54386.465774,-53726.441112,-66782.229159,-41752.924532
1679629537.523957,2,-62784.999643,-63704.706872,-60941.628926,-51750.613958,-45394.649553,-65868.132218,-67133.308009,-63871.227368,-68085.089992,-71137.868898,187500.0,-187500.022352,-54340.756457,-53644.969004,-67541.517918,-42345.402222
1679629537.523975,2,-62780.685756,-63708.305503,-60817.822613,-51914.720466,-45325.605014,-65908.119489,-67175.373992,-63952.855939,-68114.66135,-71161.584099,187500.0,-187500.022352,-54335.190873,-53689.00194,-66746.667534,-41884.911583
1679629537.523992,2,-62765.374811,-63694.872105,-61493.314683,-52008.396627,-45853.597922,-65873.295471,-67137.152509,-63931.197099,-68084.419439,-71155.750293,187500.0,-187500.022352,-54392.009007,-53692.622923,-67618.854954,-42591.696094
1679629537.52401,2,-62797.00253,-63717.827346,-60862.168474,-51782.152269,-45265.769394,-65923.005751,-67169.31667,-63887.097107,-68097.249341,-71185.746334,187500.0,-187500.022352,-54320.863404,-53690.700673,-67475.669679,-42580.386112
1679629537.524026,2,-62755.629451,-63687.361918,-61695.553266,-52208.467091,-45981.002865,-65905.258465,-67172.580024,-64003.080309,-68105.407727,-71165.69682,187500.0,-187500.022352,-54385.571705,-53757.912369,-67458.324725,-42710.205044
1679629537.524044,2,-62770.828637,-63719.637837,-61666.808923,-51964.900132,-45834.442477,-65876.692936,-67128.860012,-63887.38768,-68079.211483,-71156.912584,187500.0,-187500.022352,-54351.395887,-53701.384807,-68497.300863,-43602.978421
1679629537.524063,2,-62767.565282,-63706.204439,-61686.567865,-52121.675267,-45842.287939,-65924.503317,-67187.019251,-63974.850056,-68111.487402,-71187.333308,187500.0,-187500.022352,-54336.353163,-53694.947504,-67975.700554,-43455.523962
1679629537.524084,2,-62736.764578,-63668.452343,-62404.260028,-52164.232989,-46385.636495,-65883.823143,-67163.527568,-63964.14357,-68090.275596,-71131.811575,187500.0,-187500.022352,-54379.134402,-53711.845423,-68996.862352,-44328.001956
1679629537.524103,2,-62776.818904,-63721.068349,-61732.545404,-51863.467915,-45762.581618,-65927.520803,-67131.318704,-63890.069889,-68109.609855,-71157.784302,187500.0,-187500.022352,-54298.534012,-53695.327484,-68936.445586,-44375.432357
1679629537.524147,2,-62765.620681,-63711.971189,-62368.430182,-52196.039521,-46337.982576,-65919.92121,-67153.983373,-63986.383556,-68112.046196,-71190.239035,187500.0,-187500.022352,-54397.574591,-53722.864833,-68803.698576,-44362.445994
1679629537.524164,2,-62786.139582,-63738.748579,-62124.595001,-51881.885753,-46046.582883,-65873.787209,-67124.836698,-63881.330357,-68101.384413,-71188.495599,187500.0,-187500.022352,-54351.619405,-53707.822109,-69644.437092,-44975.867269
1679629537.524182,2,-62783.099745,-63708.596076,-61877.071783,-52008.977772,-45873.490974,-65940.775387,-67189.701461,-63967.228111,-68137.21426,-71217.731681,187500.0,-187500.022352,-54333.849768,-53747.67527,-68815.120317,-44437.10082
1679629537.5242,2,-62762.424381,-63688.79243,-62479.160724,-52102.989209,-46363.731785,-65899.379957,-67138.784187,-63944.652849,-68100.646806,-71151.525814,187500.0,-187500.022352,-54351.17237,-53717.478063,-69593.408059,-45023.81176
1679629537.524218,2,-62782.429192,-63752.919585,-61725.750473,-51825.894633,-45684.082292,-65934.651009,-67155.503292,-63887.678252,-68116.091861,-71204.00771,187500.0,-187500.022352,-54292.119061,-53680.865905,-69411.688377,-44924.905291
1679629537.524235,2,-62766.581806,-63707.098509,-62328.621725,-52189.222239,-46239.389031,-65938.294344,-67152.105826,-63978.314576,-68107.24057,-71224.325445,187500.0,-187500.022352,-54399.072158,-53751.899749,-69172.792932,-44818.578043
1679629537.524252,2,-62782.004509,-63734.837024,-62111.094548,-51889.932381,-45978.655932,-65868.467494,-67130.692855,-63887.52179,-68094.701242,-71174.659869,187500.0,-187500.022352,-54331.860463,-53681.379996,-69972.136017,-45395.320105
1679629537.524273,2,-62779.881093,-63720.82248,-61841.219585,-51998.159528,-45795.14811,-65938.562565,-67169.182559,-63962.087209,-68136.655466,-71223.990169,187500.0,-187500.022352,-54344.712716,-53722.037819,-69132.78331,-44848.328215
1679629537.52429,2,-62752.768427,-63691.318177,-62439.106398,-52098.764729,-46286.998247,-65900.408137,-67136.794881,-63943.624669,-68109.699262,-71176.626823,187500.0,-187500.022352,-54410.404493,-53730.866758,-69851.458949,-45369.414433
1679629537.524307,2,-62779.523466,-63725.628105,-61690.054737,-51824.285307,-45618.569329,-65925.464442,-67163.058181,-63896.99893,-68132.699207,-71183.667622,187500.0,-187500.022352,-54315.186061,-53680.709443,-69655.791778,-45231.526522
1679629537.524325,2,-62737.837462,-63675.426087,-62293.730652,-52196.598315,-46187.510632,-65952.755922,-67167.617937,-64007.483602,-68143.025713,-71201.928997,187500.0,-187500.022352,-54391.293751,-53726.374057,-69376.663193,-45078.148851
1679629537.52437,2,-62743.179529,-63711.144174,-62093.593132,-51905.04216,-45951.409155,-65914.355625,-67121.975675,-63886.62772,-68113.163783,-71209.170962,187500.0,-187500.022352,-54362.638815,-53698.34497,-70189.439677,-45654.600341
1679629538.002281,2,-62726.169852,-63699.185991,-61849.132103,-52011.861147,-45792.510604,-65944.932812,-67154.676277,-63968.703326,-68141.237574,-71247.615963,187500.0,-187500.022352,-54321.131625,-53678.384862,-69350.22108,-45095.717322
1679629538.002334,2,-62710.322465,-63693.441593,-62508.128584,-52130.660669,-46331.969956,-65898.53059,-67108.698739,-63960.81316,-68107.128812,-71194.463515,187500.0,-187500.022352,-54393.908905,-53746.468275,-70098.356318,-45652.342814
1679629538.002367,2,-62728.874413,-63717.804994,-61764.106067,-51840.289156,-45667.094966,-65939.680152,-67142.293411,-63914.321532,-68128.206507,-71247.459501,187500.0,-187500.022352,-54301.663256,-53738.086371,-69951.773578,-45570.982465
1679629538.002396,2,-62679.074726,-63652.962584,-62330.23105,-52197.470033,-46203.62624,-65915.942599,-67147.076684,-64012.110414,-68121.299818,-71264.647992,187500.0,-187500.022352,-54356.983823,-53774.363252,-69641.307848,-45401.466835
1679629538.002417,2,-62678.694746,-63678.957662,-62145.762103,-51912.038256,-45977.985379,-65880.068049,-67105.547143,-63895.344901,-68069.041439,-71246.118396,187500.0,-187500.022352,-54308.011151,-53712.717141,-70456.565375,-45982.701598
1679629538.002434,2,-62669.26231,-63663.110276,-61856.552882,-52017.940821,-45772.014054,-65954.3876,-67153.536338,-63963.338907,-68097.696376,-71263.46335,187500.0,-187500.022352,-54306.491233,-53731.045572,-69624.365225,-45444.985681
1679629538.00245,2,-62635.622935,-63628.57683,-62522.277239,-52139.713125,-46325.823227,-65907.11366,-67087.308119,-63953.906471,-68032.250468,-71252.108664,187500.0,-187500.022352,-54364.583417,-53731.4032,-70349.589926,-45999.375999
1679629538.002473,2,-62664.479037,-63673.280319,-61746.179968,-51816.439845,-45623.129084,-65920.703521,-67123.115614,-63876.010642,-68054.44575,-71203.560675,187500.0,-187500.022352,-54257.89854,-53648.187655,-70245.162576,-45931.270234
1679629538.002495,2,-62650.755066,-63651.353258,-62298.782146,-52173.464259,-46151.144344,-65910.600532,-67147.702533,-63998.431146,-68042.644029,-71308.747984,187500.0,-187500.022352,-54339.013021,-53715.511109,-69899.202275,-45719.509807
1679629538.002576,2,-62660.858054,-63667.2677,-62145.426827,-51899.230707,-45946.268254,-65904.073823,-67095.868837,-63868.500455,-68016.023101,-71240.105777,187500.0,-187500.022352,-54342.119913,-53705.944563,-70714.593913,-46281.700883
1679629538.002592,2,-62678.068897,-63691.049956,-61829.887251,-51989.889382,-45716.179397,-65945.737475,-67161.180635,-63954.711134,-68056.88209,-71287.312661,187500.0,-187500.022352,-54307.966448,-53707.71035,-69860.734923,-45699.080312
1679629538.002609,2,-62652.029115,-63663.512607,-62483.787535,-52129.00664,-46259.125621,-65921.441128,-67115.538372,-63957.840378,-68020.962837,-71248.755902,187500.0,-187500.022352,-54371.713623,-53727.938679,-70508.622588,-46167.461117
1679629538.002626,2,-62696.978473,-63704.840983,-61729.796139,-51823.882976,-45578.850279,-65961.584861,-67139.074759,-63883.744345,-68031.982247,-71259.663553,187500.0,-187500.022352,-54309.464015,-53715.466406,-70375.875577,-46061.670311
1679629538.002642,2,-62653.50433,-63660.942156,-62261.767657,-52175.587675,-46091.800462,-65960.713143,-67151.569385,-63993.379652,-68039.604192,-71272.515806,187500.0,-187500.022352,-54376.273379,-53714.929964,-69988.363384,-45814.862348
1679629538.002658,2,-62676.772496,-63692.525171,-62136.217908,-51913.446416,-45910.885443,-65896.742451,-67136.77253,-63888.41586,-68015.799584,-71233.579067,187500.0,-187500.022352,-54345.159751,-53681.581161,-70806.705452,-46374.058291
1679629538.002674,2,-62685.824953,-63702.516401,-61786.122535,-51986.201344,-45648.252445,-65936.32739,-67160.375972,-63959.583814,-68056.435055,-71280.629489,187500.0,-187500.022352,-54332.575718,-53704.11172,-69940.955334,-45774.718615
1679629538.002692,2,-62667.541226,-63685.350261,-62429.718665,-52129.945413,-46184.381388,-65932.549945,-67120.589867,-63956.476922,-68027.489546,-71255.304963,187500.0,-187500.022352,-54398.938048,-53731.582014,-70557.08117,-46213.3716
1679629538.002709,2,-62700.666511,-63736.446349,-61679.392955,-51830.141464,-45499.099255,-65928.034893,-67133.308009,-63878.312871,-68014.100851,-71249.024123,187500.0,-187500.022352,-54313.330866,-53683.816336,-70422.970703,-46097.187233
1679629538.002726,2,-62668.524703,-63688.65832,-62192.499601,-52180.147431,-45989.205955,-65963.752981,-67137.554841,-63993.446707,-68030.48468,-71255.439073,187500.0,-187500.022352,-54380.073175,-53722.976592,-69986.843465,-45811.219014
1679629538.002742,2,-62664.590796,-63697.777831,-62120.48228,-51930.903128,-45851.206285,-65905.347872,-67104.854239,-63875.585958,-67957.975621,-71202.174866,187500.0,-187500.022352,-54323.120931,-53701.675379,-70793.517923,-46359.730823
1679629538.002786,2,-62693.290435,-63725.136367,-61769.738706,-51983.429728,-45577.218601,-65895.602512,-67167.640289,-63943.244689,-68029.881183,-71281.858835,187500.0,-187500.022352,-54284.094785,-53688.979589,-69955.416912,-45792.756473
1679629538.002802,2,-62657.281775,-63686.512552,-62462.46397,-52166.199942,-46157.179315,-65905.772556,-67119.516983,-63961.260195,-68013.095023,-71259.328277,187500.0,-187500.022352,-54382.196591,-53765.020223,-70521.34073,-46202.553356
1679629538.002823,2,-62690.988206,-63744.537681,-61780.93693,-51866.395994,-45523.820284,-65918.937733,-67126.133099,-63877.798781,-68019.33116,-71244.866698,187500.0,-187500.022352,-54305.463052,-53712.806548,-70495.3233,-46178.279362
1679629538.002842,2,-62664.233168,-63700.258875,-62241.584032,-52200.576925,-45978.63358,-65939.389579,-67132.860974,-63967.049297,-68036.854927,-71245.26903,187500.0,-187500.022352,-54382.151888,-53761.533351,-70023.097995,-45886.6338
1679629538.002858,2,-62661.95329,-63713.736977,-62279.202018,-51990.828155,-45925.548187,-65906.420756,-67095.198285,-63878.916368,-68013.340892,-71241.379826,187500.0,-187500.022352,-54366.93035,-53705.877507,-70855.231089,-46468.919095
1679629538.002876,2,-62679.678223,-63722.87884,-61823.941687,-51980.591056,-45560.365386,-65913.528611,-67165.718039,-63937.142663,-68052.434093,-71267.374905,187500.0,-187500.022352,-54326.674858,-53698.657894,-70078.77619,-45927.805713
1679629538.002892,2,-62662.60149,-63705.265666,-62501.758337,-52192.776167,-46142.538922,-65901.436317,-67136.750178,-63977.308747,-68026.930753,-71214.088346,187500.0,-187500.022352,-54383.917675,-53732.0514,-70465.2155,-46222.915795
1679629538.002909,2,-62676.481924,-63750.237376,-62016.099634,-51918.855538,-45661.842306,-65922.335198,-67101.859105,-63887.968825,-68035.335009,-71248.957068,187500.0,-187500.022352,-54330.854634,-53729.391543,-70635.871069,-46332.14877
1679629538.002926,2,-62646.083551,-63710.719491,-62280.610178,-52155.381698,-45961.892123,-65913.26039,-67121.729806,-63974.224207,-68037.905459,-71277.81317,187500.0,-187500.022352,-54362.616463,-53741.372078,-70154.548604,-46026.265147
1679629538.002942,2,-62651.626784,-63707.50084,-62555.782504,-52058.844514,-46111.447646,-65883.398459,-67072.019526,-63892.327415,-68015.956046,-71235.121338,187500.0,-187500.022352,-54368.159696,-53713.499452,-70936.054997,-46577.079186
1679629538.002958,2,-62669.530531,-63730.769006,-62285.50521,-52011.838795,-45877.402529,-65928.25841,-67110.620989,-63903.659749,-68053.819901,-71250.320524,187500.0,-187500.022352,-54336.688439,-53732.096104,-70588.306557,-46314.625003
1679629538.003,2,-62656.365354,-63706.85264,-62570.60171,-52102.966857,-46138.135628,-65929.15248,-67105.301274,-63926.972619,-68023.466232,-71229.555753,187500.0,-187500.022352,-54370.238408,-53739.002793,-70787.862931,-46461.922999
1679629538.003017,2,-62684.908531,-63743.151873,-62207.564677,-51948.918635,-45758.446545,-65908.00773,-67121.819213,-63881.732688,-68016.961875,-71260.557623,187500.0,-187500.022352,-54326.965431,-53706.592763,-70772.686097,-46430.027059
1679629538.003033,2,-62674.492618,-63715.323951,-62210.336293,-52069.036909,-45842.332642,-65919.697692,-67131.162242,-63948.89968,-68036.25143,-71287.133847,187500.0,-187500.022352,-54351.082963,-53720.942583,-70366.823121,-46150.607902
1679629538.00305,2,-62684.528552,-63727.23743,-62183.536551,-51997.332513,-45781.044159,-65888.293491,-67097.612273,-63903.883267,-68017.833593,-71240.709274,187500.0,-187500.022352,-54339.817684,-53716.181662,-70632.361845,-46342.095297
1679629538.003066,2,-62706.857944,-63749.119788,-61855.725867,-51973.237332,-45517.986479,-65923.564544,-67108.609332,-63898.965883,-68060.436018,-71269.923004,187500.0,-187500.022352,-54353.519303,-53730.084447,-70156.604964,-45993.832766
1679629538.003083,2,-62701.515877,-63728.310314,-62050.029582,-52070.668587,-45731.535045,-65905.973721,-67107.782317,-63917.1155,-68018.750014,-71272.716972,187500.0,-187500.022352,-54355.866236,-53743.339031,-70166.238566,-46021.906557
1679629538.003098,2,-62726.102796,-63740.737884,-61746.112912,-51936.826341,-45416.77778,-65907.583047,-67109.771622,-63865.438266,-68025.477889,-71305.574036,187500.0,-187500.022352,-54317.845919,-53733.168987,-70128.553525,-45993.944525
1679629538.003115,2,-62718.212631,-63718.587305,-61761.177988,-52046.707517,-45518.813493,-65907.11366,-67094.594788,-63922.166994,-68021.856907,-71286.619757,187500.0,-187500.022352,-54355.463905,-53715.578165,-69724.121061,-45719.867434
1679629538.003131,2,-62750.153273,-63745.81173,-61811.759986,-52008.95542,-45533.342127,-65907.11366,-67082.569549,-63878.268168,-68040.721779,-71263.172777,187500.0,-187500.022352,-54349.965376,-53699.216688,-69999.963939,-45922.061315
1679629538.003147,2,-62757.238776,-63740.134387,-61562.269814,-51988.570629,-45338.636081,-65905.929018,-67120.947495,-63905.425537,-68049.818939,-71289.145504,187500.0,-187500.022352,-54346.254986,-53722.44015,-69601.722908,-45633.276776
1679629538.003184,2,-62742.03959,-63716.46389,-61829.10494,-52077.061185,-45620.156302,-65889.925169,-67081.67548,-63921.98818,-68024.583819,-71256.534309,187500.0,-187500.022352,-54344.757419,-53724.295345,-69702.126944,-45733.591406
1679629538.003204,2,-62780.238721,-63732.825367,-61600.491297,-51943.531864,-45365.815802,-65892.540323,-67089.923273,-63880.525694,-68025.969628,-71270.884129,187500.0,-187500.022352,-54333.62625,-53716.449883,-69737.040369,-45743.493228
1679629538.003221,2,-62761.172683,-63705.869163,-61654.426057,-52045.254653,-45499.233365,-65896.720099,-67098.863971,-63928.827814,-68018.302979,-71278.707239,187500.0,-187500.022352,-54328.083018,-53705.184603,-69403.775859,-45525.809589
1679629538.003237,2,-62790.676986,-63725.404587,-61726.21986,-52005.379141,-45521.585109,-65909.482945,-67087.174009,-63896.149563,-68007.216514,-71293.70526,187500.0,-187500.022352,-54326.406637,-53743.048458,-69710.91118,-45753.372699
1679629538.003254,2,-62772.013279,-63694.514477,-61532.787863,-51983.630894,-45355.444593,-65892.003881,-67075.931081,-63893.28854,-68025.008503,-71254.209728,187500.0,-187500.022352,-54321.086922,-53726.374057,-69374.293908,-45510.744513
1679629538.00327,2,-62773.712012,-63715.9498,-61781.473372,-52076.211819,-45612.82493,-65891.60155,-67093.499552,-63926.883212,-68017.073633,-71260.222347,187500.0,-187500.022352,-54344.243329,-53720.562604,-69472.574529,-45606.678201
1679629538.003286,2,-62801.338768,-63730.500785,-61596.713852,-51960.295672,-45386.66998,-65916.72491,-67081.116686,-63882.850275,-68000.689805,-71306.557513,187500.0,-187500.022352,-54322.249213,-53688.398443,-69557.198233,-45659.405966
1679629538.003303,2,-62776.997718,-63703.075195,-61614.304675,-52042.214816,-45482.424853,-65940.574222,-67090.52677,-63931.822947,-68011.418642,-71301.193094,187500.0,-187500.022352,-54325.467864,-53733.236043,-69238.976447,-45441.454106
1679629538.00332,2,-62799.014187,-63718.833175,-61685.98672,-52002.249897,-45513.024391,-65897.748279,-67079.932044,-63898.720014,-68009.608151,-71298.086202,187500.0,-187500.022352,-54334.028582,-53701.988304,-69493.9875,-45599.480939
1679629538.003336,2,-62799.394166,-63698.671901,-61433.948449,-51948.404544,-45300.749874,-65908.208896,-67122.847393,-63910.097052,-68032.451634,-71293.19117,187500.0,-187500.022352,-54322.673896,-53705.117548,-69165.439208,-45331.036488
1679629538.003352,2,-62790.319358,-63696.280264,-61599.105489,-52025.987449,-45508.39758,-65897.077727,-67111.269189,-63934.147529,-67999.929845,-71260.021181,187500.0,-187500.022352,-54337.113123,-53744.210749,-69141.50049,-45294.849014
1679629538.00339,2,-62805.071509,-63719.213154,-61376.124486,-51887.093709,-45268.898638,-65899.491715,-67107.201172,-63895.255494,-68013.117375,-71303.003586,187500.0,-187500.022352,-54334.542672,-53703.105891,-69161.661763,-45247.664481
1679629538.003406,2,-62793.627416,-63686.400793,-61304.084814,-51927.304498,-45301.33102,-65911.606361,-67126.937762,-63934.885136,-68016.984226,-71286.351536,187500.0,-187500.022352,-54321.779826,-53698.881411,-68746.701628,-44888.24843
1679629538.003425,2,-62805.965579,-63705.220962,-61291.031395,-51867.558285,-45279.42631,-65908.343006,-67101.92616,-63891.276883,-68009.429337,-71277.209673,187500.0,-187500.022352,-54329.982916,-53689.739548,-68877.280519,-44870.43409
1679629538.003442,2,-62805.384434,-63697.219038,-60934.141092,-51812.729456,-45000.23067,-65931.544117,-67120.098128,-63896.328377,-68034.977381,-71283.982251,187500.0,-187500.022352,-54310.223974,-53695.059263,-68378.881321,-44372.370168
1679629538.003459,2,-62793.627416,-63690.446459,-61071.179637,-51910.093654,-45200.055265,-65927.699617,-67112.006797,-63906.654883,-68011.150421,-71306.289292,187500.0,-187500.022352,-54335.570852,-53679.860077,-68225.302485,-44156.966407
1679629538.003475,2,-62826.998571,-63727.818576,-60843.974154,-51803.185261,-44959.371681,-65938.003771,-67099.378061,-63861.414952,-68003.081441,-71299.874341,187500.0,-187500.022352,-54324.372628,-53696.735644,-68177.626214,-44015.524568
1679629538.003491,2,-62814.347483,-63708.193744,-60773.32029,-51879.15884,-44990.775882,-65963.708277,-67110.844506,-63918.188383,-68023.577991,-71293.369984,187500.0,-187500.022352,-54339.996498,-53697.652065,-67726.120976,-43616.143598
1679629538.003507,2,-62806.859649,-63698.180163,-60840.219061,-51864.764317,-45031.612519,-65954.365248,-67086.346994,-63897.244799,-67996.286511,-71269.475969,187500.0,-187500.022352,-54338.096599,-53681.938789,-67887.120591,-43655.281503
1679629538.484675,2,-62812.179364,-63703.477526,-60564.711459,-51812.036551,-44806.977487,-65949.313754,-67117.639436,-63905.894924,-68008.512915,-71303.651786,187500.0,-187500.022352,-54305.105425,-53629.970983,-67512.46065,-43309.276498
