Timestamp,Label,EXG Channel 0 (Fp1),EXG Channel 1 (Fp2),EXG Channel 2 (C3),EXG Channel 3 (C4),EXG Channel 4 (P7),EXG Channel 5 (P8),EXG Channel 6 (O1),EXG Channel 7 (O2),EXG Channel 8 (F7),EXG Channel 9 (F8),EXG Channel 10 (F3),EXG Channel 11 (F4),EXG Channel 12 (T7),EXG Channel 13 (T8),EXG Channel 14 (P3),EXG Channel 15 (P4)
1680229549.224665,0,-84389.212357,-58691.478812,-76606.849027,-51696.05335,-187500.022352,-54514.183642,187500.0,187500.0,-82088.480245,187500.0,187500.0,187500.0,-42263.103099,-51666.526695,187500.0,187500.0
1680229549.224696,0,-84386.731313,-58712.735321,-76602.892769,-51466.031547,-187500.022352,-54488.166212,187500.0,187500.0,-82297.536111,187500.0,187500.0,187500.0,-41771.99057,-51633.893148,187500.0,187500.0
1680229549.224716,0,-84262.254448,-59268.712612,-76478.706477,-52114.41095,-187500.022352,-54351.328832,187500.0,187500.0,-82093.151759,187500.0,187500.0,187500.0,-42446.745032,-51815.545775,187500.0,187500.0
1680229549.224744,0,-84484.140215,-58416.820576,-76700.860465,-51349.84718,-187500.022352,-54603.344751,187500.0,187500.0,-82242.68493,187500.0,187500.0,187500.0,-41835.53658,-51554.4774,187500.0,187500.0
1680229549.224762,0,-84266.970666,-59232.793359,-76477.320668,-51932.557158,-187500.022352,-54347.126704,187500.0,187500.0,-82230.547932,187500.0,187500.0,187500.0,-42139.140324,-51799.921906,187500.0,187500.0
1680229549.22478,0,-84390.28524,-58724.626449,-76600.836408,-51727.591661,-187500.022352,-54493.083595,187500.0,187500.0,-82106.920434,187500.0,187500.0,187500.0,-42258.990378,-51679.602466,187500.0,187500.0
1680229549.2248,0,-84395.761418,-58708.689655,-76603.943301,-51477.296827,-187500.022352,-54490.088462,187500.0,187500.0,-82307.214416,187500.0,187500.0,187500.0,-41763.4075,-51623.991325,187500.0,187500.0
1680229549.224818,0,-84256.152422,-59266.902121,-76464.557822,-52118.63543,-187500.022352,-54367.109164,187500.0,187500.0,-82118.252768,187500.0,187500.0,187500.0,-42466.727491,-51856.158895,187500.0,187500.0
1680229549.224836,0,-84467.309352,-58409.891535,-76679.849825,-51356.217427,-187500.022352,-54573.751041,187500.0,187500.0,-82237.745194,187500.0,187500.0,187500.0,-41814.034201,-51553.762144,187500.0,187500.0
1680229549.224854,0,-84267.261239,-59226.691333,-76480.338154,-51933.920614,-187500.022352,-54381.213114,187500.0,187500.0,-82246.66354,187500.0,187500.0,187500.0,-42140.481429,-51788.500165,187500.0,187500.0
1680229549.224887,0,-84390.66522,-58739.24449,-76602.043402,-51754.190237,-187500.022352,-54498.895049,187500.0,187500.0,-82102.718306,187500.0,187500.0,187500.0,-42268.311056,-51696.209812,187500.0,187500.0
1680229549.225075,0,-84388.787674,-58711.975361,-76597.729516,-51493.948876,-187500.022352,-54500.347912,187500.0,187500.0,-82315.305747,187500.0,187500.0,187500.0,-41759.607704,-51628.774599,187500.0,187500.0
1680229549.225095,0,-84248.932809,-59272.691223,-76460.981543,-52140.562491,-187500.022352,-54357.408507,187500.0,187500.0,-82101.645422,187500.0,187500.0,187500.0,-42442.252331,-51837.830465,187500.0,187500.0
1680229549.225113,0,-84450.009102,-58402.180183,-76668.405732,-51374.188229,-187500.022352,-54556.920178,187500.0,187500.0,-82222.098973,187500.0,187500.0,187500.0,-41814.213015,-51551.728136,187500.0,187500.0
1680229549.22513,0,-84258.141727,-59212.922658,-76475.733695,-51946.392887,-187500.022352,-54374.038204,187500.0,187500.0,-82210.967804,187500.0,187500.0,187500.0,-42101.92467,-51764.539095,187500.0,187500.0
1680229549.225149,0,-84389.234708,-58748.654574,-76613.174571,-51778.754804,-187500.022352,-54525.42657,187500.0,187500.0,-82103.210044,187500.0,187500.0,187500.0,-42273.004922,-51719.366219,187500.0,187500.0
1680229549.22517,0,-84391.089903,-58691.635274,-76615.834429,-51486.841021,-187500.022352,-54509.601535,187500.0,187500.0,-82314.791657,187500.0,187500.0,187500.0,-41759.831221,-51640.241044,187500.0,187500.0
1680229549.225188,0,-84258.4323,-59268.645557,-76479.175863,-52140.495436,-187500.022352,-54361.253007,187500.0,187500.0,-82113.245978,187500.0,187500.0,187500.0,-42456.289227,-51854.616625,187500.0,187500.0
1680229549.225206,0,-84464.403625,-58401.822555,-76688.544653,-51386.302875,-187500.022352,-54581.708262,187500.0,187500.0,-82240.069776,187500.0,187500.0,187500.0,-41834.083716,-51576.873848,187500.0,187500.0
1680229549.225224,0,-84263.506146,-59213.392045,-76483.154474,-51945.185893,-187500.022352,-54362.080021,187500.0,187500.0,-82243.511944,187500.0,187500.0,187500.0,-42127.562121,-51785.505031,187500.0,187500.0
1680229549.225242,0,-84383.087979,-58754.197807,-76611.341728,-51790.62358,-187500.022352,-54506.405235,187500.0,187500.0,-82103.679431,187500.0,187500.0,187500.0,-42306.599594,-51714.828815,187500.0,187500.0
1680229549.225262,0,-84387.357162,-58683.454535,-76609.44183,-51487.288056,-187500.022352,-54519.145729,187500.0,187500.0,-82314.322271,187500.0,187500.0,187500.0,-41746.151953,-51641.783314,187500.0,187500.0
1680229549.225351,0,-84235.544114,-59259.347231,-76457.785244,-52146.128076,-187500.022352,-54343.48337,187500.0,187500.0,-82096.795094,187500.0,187500.0,187500.0,-42434.250407,-51854.236645,187500.0,187500.0
1680229549.22537,0,-84465.722378,-58388.210343,-76693.082058,-51372.847125,-187500.022352,-54581.954131,187500.0,187500.0,-82231.643168,187500.0,187500.0,187500.0,-41826.95351,-51582.104156,187500.0,187500.0
1680229549.225388,0,-84248.977512,-59179.640911,-76474.929032,-51927.237442,-187500.022352,-54369.679614,187500.0,187500.0,-82232.000796,187500.0,187500.0,187500.0,-42100.114179,-51792.992865,187500.0,187500.0
1680229549.225406,0,-84358.411653,-58736.137597,-76587.827693,-51786.488508,-187500.022352,-54503.432453,187500.0,187500.0,-82075.180957,187500.0,187500.0,187500.0,-42285.365437,-51726.80935,187500.0,187500.0
1680229549.225434,0,-84386.105464,-58659.024079,-76620.997682,-51464.288111,-187500.022352,-54511.814357,187500.0,187500.0,-82306.789733,187500.0,187500.0,187500.0,-41749.460012,-51633.133189,187500.0,187500.0
1680229549.225461,0,-84242.67432,-59245.645612,-76480.986354,-52116.3332,-187500.022352,-54358.526094,187500.0,187500.0,-82112.687184,187500.0,187500.0,187500.0,-42437.11143,-51851.532084,187500.0,187500.0
1680229549.22548,0,-84454.501802,-58395.295846,-76692.299747,-51370.09786,-187500.022352,-54586.133908,187500.0,187500.0,-82221.473124,187500.0,187500.0,187500.0,-41843.113821,-51576.985607,187500.0,187500.0
1680229549.225497,0,-84235.633521,-59159.323175,-76475.733695,-51912.954678,-187500.022352,-54371.445402,187500.0,187500.0,-82232.559589,187500.0,187500.0,187500.0,-42095.442664,-51796.703255,187500.0,187500.0
1680229549.225516,0,-84354.433042,-58732.471911,-76605.016184,-51780.341778,-187500.022352,-54510.719122,187500.0,187500.0,-82072.78932,187500.0,187500.0,187500.0,-42292.182719,-51717.913356,187500.0,187500.0
1680229549.225534,0,-84377.812967,-58643.847244,-76631.123022,-51447.23373,-187500.022352,-54534.680192,187500.0,187500.0,-82298.497236,187500.0,187500.0,187500.0,-41727.868227,-51639.145808,187500.0,187500.0
1680229549.225555,0,-84224.010613,-59232.949821,-76475.532529,-52102.788043,-187500.022352,-54387.069271,187500.0,187500.0,-82092.816483,187500.0,187500.0,187500.0,-42434.004537,-51842.613738,187500.0,187500.0
1680229549.2256,0,-84441.716604,-58386.958645,-76688.857578,-51346.807342,-187500.022352,-54589.553724,187500.0,187500.0,-82201.624775,187500.0,187500.0,187500.0,-41840.900998,-51562.009938,187500.0,187500.0
1680229549.225618,0,-84250.117451,-59149.041372,-76495.112657,-51869.301721,-187500.022352,-54406.135309,187500.0,187500.0,-82229.22918,187500.0,187500.0,187500.0,-42086.300801,-51786.443804,187500.0,187500.0
1680229549.225635,0,-84357.964618,-58753.951937,-76604.122115,-51771.40108,-187500.022352,-54519.972744,187500.0,187500.0,-82084.971021,187500.0,187500.0,187500.0,-42324.413934,-51720.819082,187500.0,187500.0
1680229549.225654,0,-84372.09092,-58641.969698,-76619.321301,-51448.843056,-187500.022352,-54549.767619,187500.0,187500.0,-82281.979296,187500.0,187500.0,187500.0,-41725.163665,-51621.711447,187500.0,187500.0
1680229549.225671,0,-84235.901741,-59235.699086,-76483.243881,-52103.615058,-187500.022352,-54416.998257,187500.0,187500.0,-82102.047754,187500.0,187500.0,187500.0,-42433.624558,-51849.855703,187500.0,187500.0
1680229549.225689,0,-84438.699119,-58400.794375,-76681.660316,-51360.821886,-187500.022352,-54588.190268,187500.0,187500.0,-82210.476066,187500.0,187500.0,187500.0,-41847.986501,-51585.501621,187500.0,187500.0
1680229549.225707,0,-84241.467326,-59144.347506,-76485.434352,-51872.699186,-187500.022352,-54380.319045,187500.0,187500.0,-82219.819095,187500.0,187500.0,187500.0,-42060.864515,-51779.492412,187500.0,187500.0
1680229549.225724,0,-84323.900559,-58755.181283,-76572.002658,-51787.270819,-187500.022352,-54483.91938,187500.0,187500.0,-82054.505593,187500.0,187500.0,187500.0,-42297.480082,-51705.6646,187500.0,187500.0
1680229549.225742,0,-84372.359141,-58635.666506,-76622.227028,-51429.888777,-187500.022352,-54544.850236,187500.0,187500.0,-82273.195061,187500.0,187500.0,187500.0,-41700.666154,-51600.678456,187500.0,187500.0
1680229549.225761,0,-84219.473209,-59266.209217,-76469.810482,-52113.069846,-187500.022352,-54393.97596,187500.0,187500.0,-82088.301431,187500.0,187500.0,187500.0,-42427.589587,-51829.605023,187500.0,187500.0
1680229549.225835,0,-84428.909055,-58438.345306,-76684.700153,-51395.802366,-187500.022352,-54608.284486,187500.0,187500.0,-82203.323508,187500.0,187500.0,187500.0,-41855.630798,-51584.249924,187500.0,187500.0
1680229549.225854,0,-84233.666567,-59131.405846,-76491.625785,-51882.913933,-187500.022352,-54399.273324,187500.0,187500.0,-82209.269072,187500.0,187500.0,187500.0,-42046.090012,-51790.62358,187500.0,187500.0
1680229549.225872,0,-84351.259095,-58784.573827,-76611.140562,-51804.593421,-187500.022352,-54524.376038,187500.0,187500.0,-82082.78055,187500.0,187500.0,187500.0,-42334.807495,-51714.202966,187500.0,187500.0
1680229549.225891,0,-84384.026752,-58640.85211,-76638.119118,-51444.149189,-187500.022352,-54557.769544,187500.0,187500.0,-82308.264948,187500.0,187500.0,187500.0,-41736.473648,-51644.93491,187500.0,187500.0
1680229549.22591,0,-84214.913453,-59262.163551,-76465.049561,-52125.184491,-187500.022352,-54398.289847,187500.0,187500.0,-82110.943748,187500.0,187500.0,187500.0,-42416.592528,-51829.82854,187500.0,187500.0
1680229549.225937,0,-84432.328872,-58418.899288,-76678.084037,-51394.908296,-187500.022352,-54600.215507,187500.0,187500.0,-82205.357516,187500.0,187500.0,187500.0,-41868.773624,-51574.07988,187500.0,187500.0
1680229549.225956,0,-84244.753032,-59138.580756,-76487.781285,-51874.80025,-187500.022352,-54397.328722,187500.0,187500.0,-82240.025072,187500.0,187500.0,187500.0,-42064.686664,-51775.558505,187500.0,187500.0
1680229549.225975,0,-84367.777034,-58819.286086,-76612.056984,-51808.639086,-187500.022352,-54536.066,187500.0,187500.0,-82108.574463,187500.0,187500.0,187500.0,-42330.828885,-51734.610109,187500.0,187500.0
1680229549.225992,0,-84399.292993,-58644.786018,-76642.12008,-51427.675954,-187500.022352,-54566.576131,187500.0,187500.0,-82341.166716,187500.0,187500.0,187500.0,-41748.185962,-51621.532633,187500.0,187500.0
1680229549.22601,0,-84213.862921,-59296.205258,-76459.819252,-52133.834616,-187500.022352,-54370.752498,187500.0,187500.0,-82138.101117,187500.0,187500.0,187500.0,-42426.181427,-51858.52818,187500.0,187500.0
1680229549.226029,0,-84440.978997,-58421.425035,-76689.863406,-51401.814985,-187500.022352,-54616.599335,187500.0,187500.0,-82225.161162,187500.0,187500.0,187500.0,-41860.279961,-51605.260564,187500.0,187500.0
1680229549.226105,0,-84245.580047,-59141.911166,-76490.038811,-51884.232686,-187500.022352,-54413.913717,187500.0,187500.0,-82254.911334,187500.0,187500.0,187500.0,-42042.670195,-51801.084197,187500.0,187500.0
1680229549.226124,0,-84356.623513,-58830.394903,-76608.480705,-51839.685659,-187500.022352,-54543.822055,187500.0,187500.0,-82110.429658,187500.0,187500.0,187500.0,-42343.099993,-51773.658606,187500.0,187500.0
1680229549.226149,0,-84383.602069,-58640.494483,-76637.023883,-51464.757498,-187500.022352,-54576.455602,187500.0,187500.0,-82338.730376,187500.0,187500.0,187500.0,-41753.505677,-51655.887265,187500.0,187500.0
1680229549.226177,0,-84213.46059,-59303.804851,-76464.870747,-52167.83162,-187500.022352,-54411.52208,187500.0,187500.0,-82125.204161,187500.0,187500.0,187500.0,-42425.533226,-51832.64486,187500.0,187500.0
1680229549.226194,0,-84432.619444,-58433.427922,-76681.950889,-51450.318271,-187500.022352,-54645.790714,187500.0,187500.0,-82218.701508,187500.0,187500.0,187500.0,-41893.427598,-51605.349971,187500.0,187500.0
1680229549.226212,0,-84261.427434,-59146.873253,-76509.574236,-51899.029541,-187500.022352,-54433.985583,187500.0,187500.0,-82260.87925,187500.0,187500.0,187500.0,-42043.452506,-51815.523424,187500.0,187500.0
1680229549.22623,0,-84346.386414,-58842.598956,-76596.991908,-51868.921741,-187500.022352,-54540.916329,187500.0,187500.0,-82105.780495,187500.0,187500.0,187500.0,-42361.562534,-51759.912283,187500.0,187500.0
1680229549.226248,0,-84382.97622,-58627.888099,-76634.140507,-51460.085983,-187500.022352,-54587.229143,187500.0,187500.0,-82330.437878,187500.0,187500.0,187500.0,-41716.804113,-51666.057308,187500.0,187500.0
1680229549.3371,0,-42333.466391,-29383.625613,-38252.976627,-26946.927839,-93750.011176,-26640.552478,93749.988824,93749.988824,-41032.103125,93749.988824,93749.988824,93749.988824,-21274.457428,-25934.617333,93749.988824,93749.988824
1680229549.337146,0,-84755.356283,-58615.885212,-76596.723687,-53669.667681,-187500.022352,-53381.240771,187500.0,187500.0,-82211.504246,187500.0,187500.0,187500.0,-41380.723283,-51520.972135,187500.0,187500.0
1680229549.353252,0,-84607.790066,-58846.354049,-76457.137043,-53963.481362,-187500.022352,-53230.075923,187500.0,187500.0,-82184.704505,187500.0,187500.0,187500.0,-41633.052127,-51581.232438,187500.0,187500.0
1680229549.385337,0,-84721.068707,-58672.546884,-76560.312696,-53803.018189,-187500.022352,-53326.38959,187500.0,187500.0,-82112.083687,187500.0,187500.0,187500.0,-41736.496,-51496.318161,187500.0,187500.0
1680229549.474674,0,-84691.586756,-58689.91419,-76537.223344,-53775.23497,-187500.022352,-53320.198157,187500.0,187500.0,-82251.670331,187500.0,187500.0,187500.0,-41366.127594,-51556.556112,187500.0,187500.0
1680229549.474712,0,-84616.015508,-58793.44747,-76473.11854,-53998.014807,-187500.022352,-53250.751287,187500.0,187500.0,-82108.865036,187500.0,187500.0,187500.0,-41880.955324,-51538.562958,187500.0,187500.0
1680229549.474732,0,-84738.011329,-58578.803668,-76582.910309,-53699.753129,-187500.022352,-53376.010463,187500.0,187500.0,-82201.155388,187500.0,187500.0,187500.0,-41404.63965,-51531.745676,187500.0,187500.0
1680229549.474751,0,-84603.342069,-58799.460089,-76449.135119,-53959.413345,-187500.022352,-53233.026353,187500.0,187500.0,-82176.993153,187500.0,187500.0,187500.0,-41628.112391,-51578.796098,187500.0,187500.0
1680229549.474769,0,-84691.787921,-58650.530416,-76530.674282,-53820.385494,-187500.022352,-53329.183558,187500.0,187500.0,-82101.310146,187500.0,187500.0,187500.0,-41708.668078,-51516.255917,187500.0,187500.0
1680229549.474788,0,-84688.748084,-58670.8258,-76534.161155,-53775.927875,-187500.022352,-53302.540279,187500.0,187500.0,-82226.92695,187500.0,187500.0,187500.0,-41328.822533,-51572.917589,187500.0,187500.0
1680229549.474808,0,-84609.824074,-58801.069415,-76444.418901,-53979.708729,-187500.022352,-53232.735781,187500.0,187500.0,-82106.495751,187500.0,187500.0,187500.0,-41865.823193,-51536.573653,187500.0,187500.0
1680229549.474826,0,-84748.829573,-58593.578171,-76586.196016,-53687.817298,-187500.022352,-53379.072652,187500.0,187500.0,-82190.739476,187500.0,187500.0,187500.0,-41361.567838,-51510.690333,187500.0,187500.0
1680229549.474845,0,-84616.462543,-58826.259831,-76462.926145,-53959.212179,-187500.022352,-53257.546217,187500.0,187500.0,-82197.735572,187500.0,187500.0,187500.0,-41622.479751,-51607.629848,187500.0,187500.0
1680229549.650426,0,-84692.547881,-58683.856867,-76531.657759,-53831.918994,-187500.022352,-53327.708343,187500.0,187500.0,-82102.159512,187500.0,187500.0,187500.0,-41746.24136,-51523.810807,187500.0,187500.0
1680229549.650463,0,-84702.695573,-58693.132841,-76550.880259,-53776.531372,-187500.022352,-53334.436218,187500.0,187500.0,-82246.037691,187500.0,187500.0,187500.0,-41363.177164,-51575.331578,187500.0,187500.0
1680229549.650485,0,-84608.505322,-58828.226784,-76450.453872,-54007.827223,-187500.022352,-53227.72899,187500.0,187500.0,-82110.20614,187500.0,187500.0,187500.0,-41888.890194,-51551.459915,187500.0,187500.0
1680229549.650506,0,-84766.196879,-58605.648113,-76603.250397,-53710.236098,-187500.022352,-53395.300018,187500.0,187500.0,-82200.373077,187500.0,187500.0,187500.0,-41364.831193,-51556.064374,187500.0,187500.0
1680229549.650527,0,-84614.808513,-58826.438645,-76455.885345,-53973.807868,-187500.022352,-53263.916464,187500.0,187500.0,-82194.092237,187500.0,187500.0,187500.0,-41598.49633,-51608.948601,187500.0,187500.0
1680229549.650567,0,-84703.030849,-58683.543942,-76535.837535,-53841.932576,-187500.022352,-53335.754971,187500.0,187500.0,-82111.189617,187500.0,187500.0,187500.0,-41729.83518,-51537.758295,187500.0,187500.0
1680229549.650599,0,-84677.572212,-58670.646986,-76520.615997,-53773.670348,-187500.022352,-53326.456645,187500.0,187500.0,-82230.927912,187500.0,187500.0,187500.0,-41290.757512,-51577.499697,187500.0,187500.0
1680229549.65062,0,-84600.950432,-58798.521316,-76446.296447,-53991.845726,-187500.022352,-53244.917482,187500.0,187500.0,-82093.554091,187500.0,187500.0,187500.0,-41850.646359,-51569.162496,187500.0,187500.0
1680229549.650641,0,-84730.344681,-58565.325566,-76573.857853,-53690.052472,-187500.022352,-53381.196067,187500.0,187500.0,-82180.1671,187500.0,187500.0,187500.0,-41391.362714,-51534.427885,187500.0,187500.0
1680229549.650662,0,-84609.89113,-58791.748737,-76459.461625,-53936.748676,-187500.022352,-53249.276072,187500.0,187500.0,-82182.066999,187500.0,187500.0,187500.0,-41573.998818,-51593.101215,187500.0,187500.0
1680229549.650683,0,-84686.736427,-58661.192198,-76531.322483,-53821.838358,-187500.022352,-53344.58391,187500.0,187500.0,-82093.755256,187500.0,187500.0,187500.0,-41726.37066,-51519.049885,187500.0,187500.0
1680229549.650765,0,-84688.166939,-58654.956061,-76540.754919,-53745.37304,-187500.022352,-53340.717058,187500.0,187500.0,-82233.543066,187500.0,187500.0,187500.0,-41296.256041,-51585.836898,187500.0,187500.0
1680229549.650786,0,-84583.49372,-58792.598104,-76437.378101,-53987.397729,-187500.022352,-53218.095388,187500.0,187500.0,-82084.166358,187500.0,187500.0,187500.0,-41824.338356,-51546.117848,187500.0,187500.0
1680229549.650806,0,-84734.703271,-58564.945586,-76585.257242,-53684.665702,-187500.022352,-53367.226227,187500.0,187500.0,-82173.394522,187500.0,187500.0,187500.0,-41387.093531,-51526.560071,187500.0,187500.0
1680229549.650827,0,-84593.686115,-58794.073319,-76444.262438,-53949.667984,-187500.022352,-53250.483066,187500.0,187500.0,-82175.942621,187500.0,187500.0,187500.0,-41589.108597,-51604.679418,187500.0,187500.0
1680229549.650848,0,-84698.5605,-58656.766553,-76543.571239,-53820.921936,-187500.022352,-53350.842399,187500.0,187500.0,-82097.711515,187500.0,187500.0,187500.0,-41721.118,-51531.477455,187500.0,187500.0
1680229549.650869,0,-84694.984221,-58646.060067,-76547.080463,-53743.003755,-187500.022352,-53348.406058,187500.0,187500.0,-82236.739366,187500.0,187500.0,187500.0,-41302.291012,-51597.258639,187500.0,187500.0
1680229549.650889,0,-84600.726914,-58797.783708,-76450.342113,-53986.593066,-187500.022352,-53247.175008,187500.0,187500.0,-82103.455913,187500.0,187500.0,187500.0,-41827.668766,-51564.200409,187500.0,187500.0
1680229549.65091,0,-84745.543867,-58575.294444,-76593.125056,-53678.74249,-187500.022352,-53386.046396,187500.0,187500.0,-82182.625792,187500.0,187500.0,187500.0,-41396.57067,-51555.88556,187500.0,187500.0
1680229549.65093,0,-84619.010641,-58783.053909,-76467.821177,-53921.638897,-187500.022352,-53263.491781,187500.0,187500.0,-82193.578147,187500.0,187500.0,187500.0,-41583.878289,-51619.655087,187500.0,187500.0
1680229549.65095,0,-84689.686857,-58678.090117,-76532.194201,-53823.380628,-187500.022352,-53351.602358,187500.0,187500.0,-82090.693067,187500.0,187500.0,187500.0,-41715.373601,-51541.647499,187500.0,187500.0
1680229549.650976,0,-84704.19314,-58664.120276,-76554.613001,-53736.991136,-187500.022352,-53365.907474,187500.0,187500.0,-82235.733537,187500.0,187500.0,187500.0,-41284.677837,-51606.199337,187500.0,187500.0
1680229549.769942,0,-84610.740496,-58800.421214,-76457.517023,-53979.798136,-187500.022352,-53244.537502,187500.0,187500.0,-82110.004975,187500.0,187500.0,187500.0,-41817.632832,-51557.80781,187500.0,187500.0
1680229549.769979,0,-84729.383556,-58614.566459,-76576.741228,-53704.849327,-187500.022352,-53357.324404,187500.0,187500.0,-82172.075769,187500.0,187500.0,187500.0,-41408.10417,-51540.373449,187500.0,187500.0
1680229549.770001,0,-84611.925138,-58770.51458,-76468.089398,-53928.411475,-187500.022352,-53260.943682,187500.0,187500.0,-82177.328429,187500.0,187500.0,187500.0,-41561.280675,-51601.684284,187500.0,187500.0
1680229549.770022,0,-84693.374895,-58720.267859,-76534.898762,-53873.984977,-187500.022352,-53330.345849,187500.0,187500.0,-82100.550187,187500.0,187500.0,187500.0,-41790.207242,-51546.073144,187500.0,187500.0
1680229549.770044,0,-84704.394305,-58688.573085,-76551.170832,-53783.080433,-187500.022352,-53353.010518,187500.0,187500.0,-82234.928874,187500.0,187500.0,187500.0,-41332.488219,-51610.624982,187500.0,187500.0
1680229549.770066,0,-84593.484949,-58779.075298,-76437.467508,-53991.242229,-187500.022352,-53239.64247,187500.0,187500.0,-82101.913643,187500.0,187500.0,187500.0,-41818.661012,-51568.82722,187500.0,187500.0
1680229549.770086,0,-84745.297998,-58670.535227,-76581.233928,-53738.689868,-187500.022352,-53386.202858,187500.0,187500.0,-82165.750225,187500.0,187500.0,187500.0,-41397.822368,-51545.089667,187500.0,187500.0
1680229549.770107,0,-84630.946473,-58752.543778,-76474.593756,-53920.096626,-187500.022352,-53270.91256,187500.0,187500.0,-82201.669479,187500.0,187500.0,187500.0,-41567.807384,-51614.111854,187500.0,187500.0
1680229550.184154,0,-84664.630552,-58726.749864,-76496.677279,-53889.966475,-187500.022352,-53305.24484,187500.0,187500.0,-82082.26646,187500.0,187500.0,187500.0,-41754.355044,-51533.98085,187500.0,187500.0
1680229550.184207,0,-84702.874387,-58688.617788,-76539.61498,-53786.321436,-187500.022352,-53349.948329,187500.0,187500.0,-82213.046517,187500.0,187500.0,187500.0,-41319.479504,-51590.307246,187500.0,187500.0
1680229550.184305,0,-84607.723011,-58740.809112,-76443.457776,-53971.572694,-187500.022352,-53251.019508,187500.0,187500.0,-82108.574463,187500.0,187500.0,187500.0,-41813.922443,-51528.012935,187500.0,187500.0
1680229550.184327,0,-84736.849038,-58706.610943,-76562.480815,-53777.447793,-187500.022352,-53389.063882,187500.0,187500.0,-82162.822147,187500.0,187500.0,187500.0,-41411.166359,-51547.660118,187500.0,187500.0
1680229550.184362,0,-84607.45479,-58688.573085,-76443.7707,-53919.850757,-187500.022352,-53235.105066,187500.0,187500.0,-82169.974705,187500.0,187500.0,187500.0,-41547.89198,-51563.149877,187500.0,187500.0
1680229550.18439,0,-84762.419434,-58766.401859,-76574.014315,-53814.574041,-187500.022352,-53421.228042,187500.0,187500.0,-82169.974705,187500.0,187500.0,187500.0,-41547.89198,-51563.149877,187500.0,187500.0
1680229550.184413,0,-84685.216509,-58734.617678,-76502.242863,-53887.060748,-187500.022352,-53308.128215,187500.0,187500.0,-82169.974705,187500.0,187500.0,187500.0,-41547.89198,-51563.149877,187500.0,187500.0
1680229550.184455,0,-84699.521625,-58692.596399,-76521.644178,-53799.285448,-187500.022352,-53337.319593,187500.0,187500.0,-82223.037746,187500.0,187500.0,187500.0,-41330.3201,-51587.267409,187500.0,187500.0
1680229550.184481,0,-84639.708357,-58628.67041,-76467.664715,-53901.298809,-187500.022352,-53306.630648,187500.0,187500.0,-82222.456601,187500.0,187500.0,187500.0,-41554.619855,-51614.089503,187500.0,187500.0
1680229550.184502,0,-84673.548898,-58738.506882,-76485.166131,-53905.813862,-187500.022352,-53326.836625,187500.0,187500.0,-82091.49773,187500.0,187500.0,187500.0,-41765.419157,-51481.834231,187500.0,187500.0
1680229550.184523,0,-84693.352544,-58723.330048,-76514.290454,-53853.488428,-187500.022352,-53325.204948,187500.0,187500.0,-82211.973633,187500.0,187500.0,187500.0,-41308.616556,-51625.19832,187500.0,187500.0
1680229550.184544,0,-84606.717182,-58532.088522,-76428.973845,-53862.540884,-187500.022352,-53228.332487,187500.0,187500.0,-82114.698841,187500.0,187500.0,187500.0,-41810.502626,-51452.374631,187500.0,187500.0
1680229550.184566,0,-84616.663708,-58061.852522,-76447.346979,-53612.000181,-187500.022352,-53265.995177,187500.0,187500.0,-82142.660873,187500.0,187500.0,187500.0,-41437.250845,-51544.910853,187500.0,187500.0
1680229550.184621,0,-84704.014326,-59042.982345,-76533.244733,-54065.874704,-187500.022352,-53363.29232,187500.0,187500.0,-82202.831769,187500.0,187500.0,187500.0,-41530.949358,-51562.635787,187500.0,187500.0
1680229550.184643,0,-84677.996895,-58741.569071,-76489.569424,-53843.251329,-187500.022352,-53327.015439,187500.0,187500.0,-82110.675527,187500.0,187500.0,187500.0,-41760.345311,-51418.936422,187500.0,187500.0
1680229550.184664,0,-84722.163942,-59407.181669,-76516.816201,-54152.688879,-187500.022352,-53375.33991,187500.0,187500.0,-82161.257525,187500.0,187500.0,187500.0,-41442.749374,-51645.270186,187500.0,187500.0
1680229550.184686,0,-84666.418691,-58301.351464,-76493.391573,-53813.679971,-187500.022352,-53302.696741,187500.0,187500.0,-82207.950319,187500.0,187500.0,187500.0,-41529.854122,-51646.946567,187500.0,187500.0
1680229550.184707,0,-84676.275811,-58651.066858,-76469.966944,-53735.00183,-187500.022352,-53323.841491,187500.0,187500.0,-82141.364472,187500.0,187500.0,187500.0,-41767.922553,-51253.600568,187500.0,187500.0
1680229550.184729,0,-84722.298053,-59345.446151,-76525.712195,-54271.086069,-187500.022352,-53364.544018,187500.0,187500.0,-82214.365269,187500.0,187500.0,187500.0,-41325.20155,-51931.171349,187500.0,187500.0
1680229550.184751,0,-84647.82204,-57708.024407,-76458.098168,-53386.627541,-187500.022352,-53291.699683,187500.0,187500.0,-82180.390618,187500.0,187500.0,187500.0,-41805.585242,-51228.119579,187500.0,187500.0
1680229550.184771,0,-84716.24073,-59648.960489,-76495.827913,-54251.572997,-187500.022352,-53360.833628,187500.0,187500.0,-82163.76092,187500.0,187500.0,187500.0,-41472.611305,-51698.24382,187500.0,187500.0
1680229550.184792,0,-84672.073683,-58266.370984,-76490.687012,-53796.849107,-187500.022352,-53294.337189,187500.0,187500.0,-82208.687926,187500.0,187500.0,187500.0,-41537.610178,-51650.433439,187500.0,187500.0
1680229550.184813,0,-84669.637343,-58598.361444,-76448.531622,-53652.210969,-187500.022352,-53308.038808,187500.0,187500.0,-82143.532591,187500.0,187500.0,187500.0,-41768.816622,-51180.018625,187500.0,187500.0
1680229550.184838,0,-84705.198968,-59415.027131,-76500.387669,-54286.97816,-187500.022352,-53347.221416,187500.0,187500.0,-82195.835673,187500.0,187500.0,187500.0,-41294.624364,-51968.252893,187500.0,187500.0
1680229550.184888,0,-84636.400299,-57763.501437,-76450.811499,-53400.373864,-187500.022352,-53278.199229,187500.0,187500.0,-82161.615153,187500.0,187500.0,187500.0,-41760.904105,-51219.201233,187500.0,187500.0
1680229550.184908,0,-84720.73343,-59567.86836,-76505.752087,-54193.950199,-187500.022352,-53374.244675,187500.0,187500.0,-82163.872679,187500.0,187500.0,187500.0,-41464.922305,-51680.720053,187500.0,187500.0
1680229550.184929,0,-84644.938665,-58363.668127,-76467.642363,-53842.536073,-187500.022352,-53287.408148,187500.0,187500.0,-82197.176778,187500.0,187500.0,187500.0,-41503.032029,-51655.551989,187500.0,187500.0
1680229550.18495,0,-84668.720921,-58577.104935,-76449.448043,-53687.012635,-187500.022352,-53325.830796,187500.0,187500.0,-82130.032138,187500.0,187500.0,187500.0,-41773.421082,-51227.136103,187500.0,187500.0
1680229550.18497,0,-84714.676108,-59305.83886,-76508.367241,-54235.122113,-187500.022352,-53390.717911,187500.0,187500.0,-82204.999889,187500.0,187500.0,187500.0,-41306.157864,-51906.226803,187500.0,187500.0
1680229550.184991,0,-84651.241857,-57946.986907,-76461.048598,-53517.742874,-187500.022352,-53309.782244,187500.0,187500.0,-82170.332333,187500.0,187500.0,187500.0,-41788.150881,-51287.508164,187500.0,187500.0
1680229550.185011,0,-84732.468096,-59425.152472,-76519.096079,-54146.139818,-187500.022352,-53395.590591,187500.0,187500.0,-82169.974705,187500.0,187500.0,187500.0,-41476.053473,-51649.651128,187500.0,187500.0
1680229550.185031,0,-84658.70734,-58453.969175,-76479.913471,-53875.348434,-187500.022352,-53311.995067,187500.0,187500.0,-82203.345859,187500.0,187500.0,187500.0,-41500.796855,-51655.753154,187500.0,187500.0
1680229550.185052,0,-84668.631514,-58636.828796,-76459.483976,-53757.755906,-187500.022352,-53334.279756,187500.0,187500.0,-82120.532646,187500.0,187500.0,187500.0,-41784.753416,-51269.224437,187500.0,187500.0
1680229550.185074,0,-84720.956948,-59285.789345,-76522.091213,-54242.52054,-187500.022352,-53347.489637,187500.0,187500.0,-82206.452752,187500.0,187500.0,187500.0,-41298.893547,-51876.588389,187500.0,187500.0
1680229550.185123,0,-84626.364365,-57992.562114,-76431.767813,-53574.404547,-187500.022352,-53258.149714,187500.0,187500.0,-82167.940696,187500.0,187500.0,187500.0,-41816.537597,-51323.338011,187500.0,187500.0
1680229550.185144,0,-84718.699422,-59493.280589,-76493.570387,-54222.091046,-187500.022352,-53377.26216,187500.0,187500.0,-82149.142879,187500.0,187500.0,187500.0,-41477.752206,-51601.930154,187500.0,187500.0
1680229550.185165,0,-84673.437139,-58433.360867,-76478.862939,-53898.594248,-187500.022352,-53323.148587,187500.0,187500.0,-82214.655842,187500.0,187500.0,187500.0,-41506.742419,-51671.444079,187500.0,187500.0
1680229550.185186,0,-84671.067854,-58595.723938,-76446.631723,-53727.491644,-187500.022352,-53309.156395,187500.0,187500.0,-82143.040853,187500.0,187500.0,187500.0,-41800.131416,-51222.285774,187500.0,187500.0
1680229550.185207,0,-84732.110468,-59478.237865,-76511.831762,-54379.648492,-187500.022352,-53370.869562,187500.0,187500.0,-82212.353612,187500.0,187500.0,187500.0,-41308.92948,-51967.671748,187500.0,187500.0
1680229550.185229,0,-84644.268113,-57739.048629,-76439.210944,-53435.242586,-187500.022352,-53295.879459,187500.0,187500.0,-82201.535368,187500.0,187500.0,187500.0,-41811.016716,-51274.790022,187500.0,187500.0
1680229550.185248,0,-84724.130896,-59631.257907,-76482.126293,-54273.030671,-187500.022352,-53384.839402,187500.0,187500.0,-82165.102025,187500.0,187500.0,187500.0,-41498.919308,-51643.973785,187500.0,187500.0
1680229550.185265,0,-84681.461415,-58368.764325,-76478.840587,-53879.237637,-187500.022352,-53332.558672,187500.0,187500.0,-82234.23597,187500.0,187500.0,187500.0,-41480.523822,-51734.163074,187500.0,187500.0
1680229550.185283,0,-84684.568308,-58449.498826,-76445.17886,-53597.806823,-187500.022352,-53345.410925,187500.0,187500.0,-82166.688999,187500.0,187500.0,187500.0,-41807.820416,-51159.075041,187500.0,187500.0
1680229550.1853,0,-84738.771288,-59484.406946,-76504.50039,-54363.018794,-187500.022352,-53385.19703,187500.0,187500.0,-82231.978444,187500.0,187500.0,187500.0,-41295.674896,-52011.280002,187500.0,187500.0
1680229550.185318,0,-84654.169935,-57679.168305,-76439.725034,-53382.492469,-187500.022352,-53279.853258,187500.0,187500.0,-82216.622796,187500.0,187500.0,187500.0,-41785.580431,-51268.956216,187500.0,187500.0
1680229550.185356,0,-84742.146402,-59539.861624,-76489.39061,-54198.755824,-187500.022352,-53405.291248,187500.0,187500.0,-82189.934813,187500.0,187500.0,187500.0,-41494.71718,-51656.08843,187500.0,187500.0
1680229550.185372,0,-84696.302974,-58390.959607,-76489.122389,-53859.03166,-187500.022352,-53345.075648,187500.0,187500.0,-82248.094052,187500.0,187500.0,187500.0,-41458.976741,-51738.47696,187500.0,187500.0
1680229550.18539,0,-84681.975506,-58434.187881,-76443.368369,-53598.320913,-187500.022352,-53324.914375,187500.0,187500.0,-82174.132129,187500.0,187500.0,187500.0,-41790.855442,-51190.613352,187500.0,187500.0
1680229550.185406,0,-84739.195971,-59420.77153,-76511.80941,-54305.932439,-187500.022352,-53366.756841,187500.0,187500.0,-82233.945398,187500.0,187500.0,187500.0,-41276.184175,-51959.49101,187500.0,187500.0
1680229550.185423,0,-84661.948343,-57721.211937,-76448.777491,-53394.94239,-187500.022352,-53291.073834,187500.0,187500.0,-82221.316662,187500.0,187500.0,187500.0,-41775.768015,-51296.359455,187500.0,187500.0
1680229550.18544,0,-84744.895666,-59506.736339,-76492.139875,-54186.238848,-187500.022352,-53390.404986,187500.0,187500.0,-82198.272013,187500.0,187500.0,187500.0,-41508.03882,-51646.723049,187500.0,187500.0
1680229550.185457,0,-84707.389439,-58418.206384,-76488.943575,-53893.140422,-187500.022352,-53331.754009,187500.0,187500.0,-82270.714017,187500.0,187500.0,187500.0,-41462.262447,-51755.307824,187500.0,187500.0
1680229550.185474,0,-84703.701401,-58420.3298,-76454.320723,-53615.017666,-187500.022352,-53345.880311,187500.0,187500.0,-82214.052345,187500.0,187500.0,187500.0,-41835.335414,-51196.201288,187500.0,187500.0
1680229550.185491,0,-84744.247466,-59489.056109,-76503.025175,-54371.579513,-187500.022352,-53381.35253,187500.0,187500.0,-82256.163032,187500.0,187500.0,187500.0,-41326.453248,-51994.292676,187500.0,187500.0
1680229550.185508,0,-84669.48088,-57722.865966,-76448.017531,-53436.047248,-187500.022352,-53317.627706,187500.0,187500.0,-82239.287465,187500.0,187500.0,187500.0,-41798.142111,-51306.015409,187500.0,187500.0
1680229550.185527,0,-84729.472963,-59517.107548,-76475.376067,-54220.437017,-187500.022352,-53382.492469,187500.0,187500.0,-82203.725839,187500.0,187500.0,187500.0,-41518.007698,-51643.236177,187500.0,187500.0
1680229550.185567,0,-84707.79177,-58465.636786,-76493.011593,-53937.419228,-187500.022352,-53322.6792,187500.0,187500.0,-82274.782035,187500.0,187500.0,187500.0,-41455.936903,-51776.452574,187500.0,187500.0
1680229550.185584,0,-84699.879253,-58411.523212,-76456.622953,-53625.120655,-187500.022352,-53339.800637,187500.0,187500.0,-82209.984328,187500.0,187500.0,187500.0,-41817.85635,-51203.53266,187500.0,187500.0
1680229550.185602,0,-84757.613809,-59531.926755,-76524.862829,-54403.766025,-187500.022352,-53411.683847,187500.0,187500.0,-82271.183404,187500.0,187500.0,187500.0,-41335.148076,-52021.494749,187500.0,187500.0
1680229550.185618,0,-84654.907543,-57712.517108,-76438.272171,-53469.463106,-187500.022352,-53288.928066,187500.0,187500.0,-82240.449755,187500.0,187500.0,187500.0,-41794.766998,-51339.453618,187500.0,187500.0
1680229550.185635,0,-84737.229018,-59581.480572,-76482.841549,-54261.765392,-187500.022352,-53384.347663,187500.0,187500.0,-82205.759848,187500.0,187500.0,187500.0,-41532.782201,-51629.735724,187500.0,187500.0
1680229550.373385,0,-84698.068762,-58475.180981,-76489.167093,-53979.015825,-187500.022352,-53328.334192,187500.0,187500.0,-82271.071645,187500.0,187500.0,187500.0,-41483.496604,-51824.486473,187500.0,187500.0
1680229550.37342,0,-84691.117369,-58372.362956,-76446.07293,-53626.931146,-187500.022352,-53356.162114,187500.0,187500.0,-82205.40222,187500.0,187500.0,187500.0,-41846.17601,-51197.832966,187500.0,187500.0
1680229550.373441,0,-84759.4243,-59583.134601,-76521.130088,-54444.267386,-187500.022352,-53407.705236,187500.0,187500.0,-82260.387511,187500.0,187500.0,187500.0,-41329.94012,-52033.095304,187500.0,187500.0
1680229550.373461,0,-84667.268058,-57677.871904,-76461.45093,-53493.491232,-187500.022352,-53300.88625,187500.0,187500.0,-82257.54884,187500.0,187500.0,187500.0,-41772.906992,-51353.199941,187500.0,187500.0
1680229550.373482,0,-84755.982131,-59544.533139,-76495.559692,-54259.507866,-187500.022352,-53391.567277,187500.0,187500.0,-82217.740383,187500.0,187500.0,187500.0,-41555.44687,-51652.802724,187500.0,187500.0
1680229550.373635,0,-84722.342756,-58504.551173,-76490.776419,-54015.695037,-187500.022352,-53368.388518,187500.0,187500.0,-82295.747971,187500.0,187500.0,187500.0,-41500.34982,-51827.638069,187500.0,187500.0
1680229550.373657,0,-84692.79375,-58342.836302,-76433.153621,-53651.719231,-187500.022352,-53369.506105,187500.0,187500.0,-82214.745249,187500.0,187500.0,187500.0,-41849.774641,-51233.282832,187500.0,187500.0
1680229550.373676,0,-84764.319332,-59543.415552,-76509.194256,-54405.196536,-187500.022352,-53412.62262,187500.0,187500.0,-82255.604238,187500.0,187500.0,187500.0,-41317.825474,-52024.735752,187500.0,187500.0
1680229550.373695,0,-84665.032883,-57724.408236,-76431.656054,-53524.917784,-187500.022352,-53294.426596,187500.0,187500.0,-82242.550819,187500.0,187500.0,187500.0,-41759.071262,-51383.620666,187500.0,187500.0
1680229550.373714,0,-84760.050149,-59455.014402,-76484.00384,-54181.723795,-187500.022352,-53412.600268,187500.0,187500.0,-82208.844389,187500.0,187500.0,187500.0,-41525.137904,-51634.898977,187500.0,187500.0
1680229550.37374,0,-84704.483712,-58512.217821,-76473.543224,-53996.338427,-187500.022352,-53371.026024,187500.0,187500.0,-82283.499215,187500.0,187500.0,187500.0,-41449.946636,-51821.62545,187500.0,187500.0
1680229550.37376,0,-84691.095017,-58296.858763,-76438.115709,-53632.027344,-187500.022352,-53364.074631,187500.0,187500.0,-82207.078601,187500.0,187500.0,187500.0,-41798.812663,-51241.016536,187500.0,187500.0
1680229550.373779,0,-84746.259123,-59477.254388,-76500.521779,-54330.854634,-187500.022352,-53420.646896,187500.0,187500.0,-82255.514831,187500.0,187500.0,187500.0,-41319.770076,-51977.975902,187500.0,187500.0
1680229550.373798,0,-84665.546973,-57734.600632,-76445.223563,-53535.668973,-187500.022352,-53330.770532,187500.0,187500.0,-82260.052235,187500.0,187500.0,187500.0,-41709.942127,-51407.581736,187500.0,187500.0
1680229550.373818,0,-84733.876256,-59395.447003,-76485.143779,-54143.211739,-187500.022352,-53408.822824,187500.0,187500.0,-82195.79097,187500.0,187500.0,187500.0,-41532.737497,-51641.313927,187500.0,187500.0
1680229550.373838,0,-84706.76359,-58531.708542,-76496.029078,-53987.353025,-187500.022352,-53385.755823,187500.0,187500.0,-82255.984218,187500.0,187500.0,187500.0,-41432.847551,-51829.716781,187500.0,187500.0
1680229550.373935,0,-84675.940535,-58300.457394,-76439.322703,-53649.126428,-187500.022352,-53335.464398,187500.0,187500.0,-82178.11074,187500.0,187500.0,187500.0,-41763.608666,-51259.412022,187500.0,187500.0
1680229550.373954,0,-84743.934541,-59485.211609,-76519.699576,-54314.26964,-187500.022352,-53417.919984,187500.0,187500.0,-82218.567397,187500.0,187500.0,187500.0,-41315.277376,-51938.949756,187500.0,187500.0
1680229550.373974,0,-84671.78311,-57817.659714,-76466.569479,-53605.562878,-187500.022352,-53338.705401,187500.0,187500.0,-82216.712203,187500.0,187500.0,187500.0,-41745.168477,-51444.730335,187500.0,187500.0
1680229550.373993,0,-84742.884009,-59374.950454,-76501.16998,-54120.614126,-187500.022352,-53393.91421,187500.0,187500.0,-82170.600554,187500.0,187500.0,187500.0,-41538.616006,-51621.733799,187500.0,187500.0
1680229550.374013,0,-84708.752895,-58644.04841,-76511.362375,-54032.905881,-187500.022352,-53359.96191,187500.0,187500.0,-82224.669424,187500.0,187500.0,187500.0,-41446.504467,-51817.959764,187500.0,187500.0
1680229550.374032,0,-84685.037695,-58360.963566,-76462.523814,-53727.849272,-187500.022352,-53348.853093,187500.0,187500.0,-82132.714347,187500.0,187500.0,187500.0,-41801.785445,-51310.217537,187500.0,187500.0
1680229550.374051,0,-84739.106564,-59509.4409,-76519.945445,-54311.185099,-187500.022352,-53407.571126,187500.0,187500.0,-82184.682153,187500.0,187500.0,187500.0,-41337.092678,-51918.520262,187500.0,187500.0
1680229550.374071,0,-84643.061118,-57967.617567,-76447.548145,-53740.12038,-187500.022352,-53293.152546,187500.0,187500.0,-82164.185603,187500.0,187500.0,187500.0,-41701.314354,-51483.48826,187500.0,187500.0
1680229550.37409,0,-84727.77423,-59327.475348,-76495.380878,-54114.310934,-187500.022352,-53361.548884,187500.0,187500.0,-82106.294585,187500.0,187500.0,187500.0,-41550.149506,-51591.223668,187500.0,187500.0
1680229550.401489,0,-84691.698514,-58711.081292,-76497.370183,-54086.728881,-187500.022352,-53344.695669,187500.0,187500.0,-82203.345859,187500.0,187500.0,187500.0,-41452.762956,-51822.00543,187500.0,187500.0
1680229550.401536,0,-84687.183462,-58369.546636,-76469.162282,-53795.105671,-187500.022352,-53322.209814,187500.0,187500.0,-82106.473399,187500.0,187500.0,187500.0,-41794.007038,-51363.839372,187500.0,187500.0
1680229550.401611,0,-84760.273666,-59422.425559,-76540.777271,-54255.193979,-187500.022352,-53414.299001,187500.0,187500.0,-82188.437246,187500.0,187500.0,187500.0,-41358.12567,-51907.500852,187500.0,187500.0
1680229550.468824,0,-84645.363348,-58115.586116,-76451.571459,-53859.836323,-187500.022352,-53267.515095,187500.0,187500.0,-82147.779423,187500.0,187500.0,187500.0,-41720.335689,-51526.850644,187500.0,187500.0
1680229550.468859,0,-84746.013253,-59180.803201,-76523.365262,-54070.501515,-187500.022352,-53387.074576,187500.0,187500.0,-82107.680393,187500.0,187500.0,187500.0,-41583.945344,-51592.453014,187500.0,187500.0
1680229550.468882,0,-84699.901605,-58746.397048,-76506.355584,-54091.959189,-187500.022352,-53344.226282,187500.0,187500.0,-82198.629641,187500.0,187500.0,187500.0,-41461.390729,-51806.225098,187500.0,187500.0
1680229550.468903,0,-84689.530395,-58432.712666,-76471.889194,-53872.889742,-187500.022352,-53323.461512,187500.0,187500.0,-82088.010858,187500.0,187500.0,187500.0,-41811.687268,-51421.708038,187500.0,187500.0
1680229550.468923,0,-84752.62937,-59250.808865,-76526.628617,-54144.351678,-187500.022352,-53364.834591,187500.0,187500.0,-82167.024275,187500.0,187500.0,187500.0,-41346.905094,-51838.992755,187500.0,187500.0
1680229550.468942,0,-84655.51104,-58224.819091,-76441.557877,-53899.242449,-187500.022352,-53253.455848,187500.0,187500.0,-82152.719158,187500.0,187500.0,187500.0,-41705.292965,-51548.308319,187500.0,187500.0
1680229550.468962,0,-84752.607018,-59081.673215,-76499.515951,-54025.529805,-187500.022352,-53356.855018,187500.0,187500.0,-82112.865998,187500.0,187500.0,187500.0,-41565.616914,-51575.845668,187500.0,187500.0
1680229550.799175,0,-84726.053146,-58748.743981,-76494.397401,-54063.483067,-187500.022352,-53338.928919,187500.0,187500.0,-82212.398316,187500.0,187500.0,187500.0,-41437.56377,-51760.158153,187500.0,187500.0
1680229550.799227,0,-84703.656698,-58434.254936,-76452.197308,-53887.194858,-187500.022352,-53282.289598,187500.0,187500.0,-82140.850382,187500.0,187500.0,187500.0,-41836.430649,-51470.501896,187500.0,187500.0
1680229550.799341,0,-84777.797434,-59244.08099,-76523.2088,-54131.544129,-187500.022352,-53369.215532,187500.0,187500.0,-82212.152447,187500.0,187500.0,187500.0,-41402.583289,-51814.137615,187500.0,187500.0
1680229550.799368,0,-84680.187366,-58223.790911,-76443.591886,-53914.732208,-187500.022352,-53275.852296,187500.0,187500.0,-82179.742417,187500.0,187500.0,187500.0,-41727.644709,-51574.616322,187500.0,187500.0
1680229550.799388,0,-84776.232812,-59088.244628,-76511.720003,-54027.295593,-187500.022352,-53370.534285,187500.0,187500.0,-82153.792042,187500.0,187500.0,187500.0,-41581.173728,-51574.772784,187500.0,187500.0
1680229550.799409,0,-84735.507934,-58786.160801,-76488.384782,-54083.51023,-187500.022352,-53316.286602,187500.0,187500.0,-82226.368156,187500.0,187500.0,187500.0,-41445.163363,-51798.893726,187500.0,187500.0
1680229550.799428,0,-84700.147474,-58407.723416,-76442.74252,-53875.035509,-187500.022352,-53266.03988,187500.0,187500.0,-82123.930111,187500.0,187500.0,187500.0,-41803.573585,-51416.187157,187500.0,187500.0
1680229550.799453,0,-84777.685675,-59286.348139,-76517.95614,-54129.398361,-187500.022352,-53351.803524,187500.0,187500.0,-82207.279766,187500.0,187500.0,187500.0,-41378.801033,-51796.993827,187500.0,187500.0
1680229550.799473,0,-84654.236991,-58218.806472,-76419.072022,-53915.112187,-187500.022352,-53227.952507,187500.0,187500.0,-82170.131167,187500.0,187500.0,187500.0,-41711.953784,-51562.233455,187500.0,187500.0
1680229550.799492,0,-84771.360132,-59070.251473,-76494.88914,-54006.88845,-187500.022352,-53319.795825,187500.0,187500.0,-82136.402385,187500.0,187500.0,187500.0,-41612.667336,-51542.42981,187500.0,187500.0
1680229550.799512,0,-84727.818933,-58790.675854,-76483.86973,-54067.975768,-187500.022352,-53303.724921,187500.0,187500.0,-82231.643168,187500.0,187500.0,187500.0,-41441.072993,-51770.104679,187500.0,187500.0
1680229550.799532,0,-84698.091113,-58380.588398,-76444.553011,-53860.462172,-187500.022352,-53250.103086,187500.0,187500.0,-82140.358644,187500.0,187500.0,187500.0,-41812.402524,-51438.13657,187500.0,187500.0
1680229550.799552,0,-84782.4913,-59284.761165,-76524.304035,-54110.913469,-187500.022352,-53336.403172,187500.0,187500.0,-82217.718031,187500.0,187500.0,187500.0,-41384.120749,-51786.510859,187500.0,187500.0
1680229550.799603,0,-84668.139776,-58226.249603,-76433.913581,-53913.346399,-187500.022352,-53227.237252,187500.0,187500.0,-82189.934813,187500.0,187500.0,187500.0,-41690.786682,-51566.368528,187500.0,187500.0
1680229550.799623,0,-84776.746902,-59063.255377,-76509.306015,-53997.992456,-187500.022352,-53360.453649,187500.0,187500.0,-82165.482004,187500.0,187500.0,187500.0,-41612.913205,-51557.874865,187500.0,187500.0
1680229550.799643,0,-84716.777172,-58794.632112,-76476.158378,-54071.261474,-187500.022352,-53288.033997,187500.0,187500.0,-82245.613008,187500.0,187500.0,187500.0,-41435.038022,-51803.788758,187500.0,187500.0
1680229550.799662,0,-84699.521625,-58332.956831,-76442.87663,-53838.91509,-187500.022352,-53265.101107,187500.0,187500.0,-82143.107908,187500.0,187500.0,187500.0,-41789.134358,-51408.565212,187500.0,187500.0
1680229550.799682,0,-84782.647763,-59295.042967,-76519.096079,-54107.292486,-187500.022352,-53330.703477,187500.0,187500.0,-82223.037746,187500.0,187500.0,187500.0,-41358.997388,-51804.638124,187500.0,187500.0
1680229550.799701,0,-84657.902677,-58163.575311,-76422.894171,-53872.979149,-187500.022352,-53219.101217,187500.0,187500.0,-82204.575205,187500.0,187500.0,187500.0,-41681.890688,-51584.875773,187500.0,187500.0
1680229550.79972,0,-84740.2018,-59052.213615,-76469.922241,-53978.546438,-187500.022352,-53303.613162,187500.0,187500.0,-82159.290571,187500.0,187500.0,187500.0,-41615.506007,-51546.117848,187500.0,187500.0
1680229550.79974,0,-84718.364146,-58788.172458,-76477.700648,-54050.094372,-187500.022352,-53288.391624,187500.0,187500.0,-82236.269979,187500.0,187500.0,187500.0,-41435.462706,-51781.52642,187500.0,187500.0
1680229550.799759,0,-84684.903584,-58283.49242,-76434.919409,-53806.817985,-187500.022352,-53244.336336,187500.0,187500.0,-82175.003847,187500.0,187500.0,187500.0,-41796.376323,-51416.99182,187500.0,187500.0
1680229550.799778,0,-84765.101643,-59327.765921,-76510.334195,-54113.640382,-187500.022352,-53328.356544,187500.0,187500.0,-82222.523656,187500.0,187500.0,187500.0,-41386.937068,-51806.828595,187500.0,187500.0
1680229550.799801,0,-84657.500345,-58155.551035,-76426.850429,-53867.950006,-187500.022352,-53206.673647,187500.0,187500.0,-82218.030956,187500.0,187500.0,187500.0,-41673.687598,-51583.04293,187500.0,187500.0
1680229550.79985,0,-84755.19982,-59051.364249,-76490.105866,-53984.290836,-187500.022352,-53307.323552,187500.0,187500.0,-82166.621943,187500.0,187500.0,187500.0,-41597.244632,-51531.186882,187500.0,187500.0
1680229550.799871,0,-84727.237788,-58827.623287,-76488.027154,-54084.381948,-187500.022352,-53296.438253,187500.0,187500.0,-82273.552689,187500.0,187500.0,187500.0,-41444.738679,-51813.757636,187500.0,187500.0
1680229550.799891,0,-84680.455587,-58266.728612,-76427.409223,-53833.39421,-187500.022352,-53226.052609,187500.0,187500.0,-82192.058228,187500.0,187500.0,187500.0,-41799.639678,-51424.747875,187500.0,187500.0
1680229550.79991,0,-84770.130786,-59341.758113,-76508.590759,-54146.095114,-187500.022352,-53310.810424,187500.0,187500.0,-82242.774337,187500.0,187500.0,187500.0,-41394.961345,-51807.208575,187500.0,187500.0
1680229550.799929,0,-84659.199078,-58155.774552,-76426.291636,-53901.544678,-187500.022352,-53219.704714,187500.0,187500.0,-82248.384625,187500.0,187500.0,187500.0,-41698.810959,-51591.089558,187500.0,187500.0
1680229550.799948,0,-84742.906361,-59030.890051,-76467.307087,-54011.537613,-187500.022352,-53320.600488,187500.0,187500.0,-82201.401258,187500.0,187500.0,187500.0,-41638.662414,-51553.739793,187500.0,187500.0
1680229550.799968,0,-84726.075497,-58836.876909,-76475.532529,-54110.734655,-187500.022352,-53266.062232,187500.0,187500.0,-82290.517663,187500.0,187500.0,187500.0,-41410.987545,-51830.364982,187500.0,187500.0
1680229550.799993,0,-84678.332171,-58215.498414,-76413.729955,-53820.653715,-187500.022352,-53214.809682,187500.0,187500.0,-82203.09999,187500.0,187500.0,187500.0,-41786.34039,-51413.951983,187500.0,187500.0
1680229550.800012,0,-84767.001541,-59372.715279,-76496.006727,-54171.352586,-187500.022352,-53307.234145,187500.0,187500.0,-82271.093997,187500.0,187500.0,187500.0,-41377.571687,-51801.039493,187500.0,187500.0
1680229550.800032,0,-84660.026093,-58110.266401,-76422.022453,-53886.948989,-187500.022352,-53213.24506,187500.0,187500.0,-82262.890907,187500.0,187500.0,187500.0,-41663.383444,-51607.428683,187500.0,187500.0
1680229550.80008,0,-84728.556541,-59017.099025,-76458.075816,-54006.575526,-187500.022352,-53271.940741,187500.0,187500.0,-82190.560662,187500.0,187500.0,187500.0,-41613.963737,-51528.303507,187500.0,187500.0
1680229550.8001,0,-84713.692631,-58863.967224,-76469.430503,-54114.445044,-187500.022352,-53265.123459,187500.0,187500.0,-82281.979296,187500.0,187500.0,187500.0,-41414.340307,-51827.414552,187500.0,187500.0
1680229550.800119,0,-84675.62761,-58149.985451,-76420.547237,-53788.288389,-187500.022352,-53235.216824,187500.0,187500.0,-82201.736534,187500.0,187500.0,187500.0,-41797.963297,-51397.277581,187500.0,187500.0
1680229550.800138,0,-84758.01614,-59436.775379,-76493.101,-54197.727644,-187500.022352,-53313.179709,187500.0,187500.0,-82247.579962,187500.0,187500.0,187500.0,-41380.745635,-51843.194883,187500.0,187500.0
1680229550.800157,0,-84655.265171,-58098.487031,-76418.222656,-53886.233733,-187500.022352,-53196.905934,187500.0,187500.0,-82258.800537,187500.0,187500.0,187500.0,-41620.624557,-51612.033142,187500.0,187500.0
1680229550.800178,0,-84725.114372,-59015.310885,-76451.414997,-54009.615363,-187500.022352,-53269.973787,187500.0,187500.0,-82190.627717,187500.0,187500.0,187500.0,-41604.419542,-51488.964437,187500.0,187500.0
1680229550.800198,0,-84717.626538,-58907.575477,-76471.509215,-54151.839513,-187500.022352,-53277.081642,187500.0,187500.0,-82296.351468,187500.0,187500.0,187500.0,-41393.866109,-51864.496096,187500.0,187500.0
1680229550.800217,0,-84662.082453,-58112.635686,-76409.013737,-53791.529392,-187500.022352,-53223.593917,187500.0,187500.0,-82201.04363,187500.0,187500.0,187500.0,-41758.311302,-51398.551631,187500.0,187500.0
1680229550.800236,0,-84758.954913,-59478.215513,-76482.752142,-54226.404932,-187500.022352,-53327.730695,187500.0,187500.0,-82271.1387,187500.0,187500.0,187500.0,-41402.985621,-51841.317337,187500.0,187500.0
1680229550.800255,0,-84659.534354,-58085.701833,-76414.869894,-53880.109355,-187500.022352,-53227.661935,187500.0,187500.0,-82266.78011,187500.0,187500.0,187500.0,-41639.288263,-51623.097256,187500.0,187500.0
1680229551.16466,0,-84738.972454,-59015.467348,-76456.533546,-53988.604723,-187500.022352,-53309.514023,187500.0,187500.0,-82225.474086,187500.0,187500.0,187500.0,-41603.346658,-51501.280248,187500.0,187500.0
1680229551.164782,0,-84702.159131,-58938.443236,-76449.738616,-54151.146609,-187500.022352,-53248.963147,187500.0,187500.0,-82292.574023,187500.0,187500.0,187500.0,-41388.434635,-51895.743834,187500.0,187500.0
1680229551.164804,0,-84664.116462,-58071.150848,-76405.906845,-53753.598482,-187500.022352,-53208.372379,187500.0,187500.0,-82226.859895,187500.0,187500.0,187500.0,-41778.7855,-51373.249456,187500.0,187500.0
1680229551.164826,0,-84751.623541,-59485.837458,-76483.132122,-54229.71299,-187500.022352,-53300.953305,187500.0,187500.0,-82258.554668,187500.0,187500.0,187500.0,-41372.833118,-51834.477703,187500.0,187500.0
1680229551.164846,0,-84654.348749,-58078.325758,-76414.981653,-53890.279399,-187500.022352,-53214.697923,187500.0,187500.0,-82269.97641,187500.0,187500.0,187500.0,-41641.746955,-51619.94566,187500.0,187500.0
1680229551.164867,0,-84711.233939,-58963.901873,-76432.505421,-53990.839897,-187500.022352,-53272.633645,187500.0,187500.0,-82200.686002,187500.0,187500.0,187500.0,-41604.844225,-51493.032455,187500.0,187500.0
1680229551.164887,0,-84707.858826,-58940.276079,-76460.243936,-54166.099926,-187500.022352,-53272.052499,187500.0,187500.0,-82286.986087,187500.0,187500.0,187500.0,-41386.95942,-51869.54759,187500.0,187500.0
1680229551.164907,0,-84666.463395,-58036.527996,-76411.315967,-53759.499342,-187500.022352,-53235.082714,187500.0,187500.0,-82225.339976,187500.0,187500.0,187500.0,-41764.30157,-51394.818889,187500.0,187500.0
1680229551.164927,0,-84763.827594,-59482.797621,-76494.196235,-54233.825711,-187500.022352,-53323.416808,187500.0,187500.0,-82283.700381,187500.0,187500.0,187500.0,-41385.573612,-51855.421287,187500.0,187500.0
1680229551.164946,0,-84671.112558,-58096.564781,-76435.299389,-53895.554411,-187500.022352,-53232.378153,187500.0,187500.0,-82290.696477,187500.0,187500.0,187500.0,-41638.237731,-51657.138962,187500.0,187500.0
1680229551.164967,0,-84720.73343,-58951.787228,-76444.418901,-53976.758298,-187500.022352,-53285.754119,187500.0,187500.0,-82216.846313,187500.0,187500.0,187500.0,-41639.578836,-51498.754501,187500.0,187500.0
1680229551.164994,0,-84699.543977,-58978.654024,-76453.560764,-54177.164039,-187500.022352,-53265.0117,187500.0,187500.0,-82288.863634,187500.0,187500.0,187500.0,-41363.490088,-51896.436739,187500.0,187500.0
1680229551.165054,0,-84656.136889,-58004.743815,-76401.369441,-53743.808418,-187500.022352,-53219.570603,187500.0,187500.0,-82214.409973,187500.0,187500.0,187500.0,-41743.626206,-51368.756755,187500.0,187500.0
1680229551.165074,0,-84755.915076,-59476.405022,-76488.205968,-54222.605136,-187500.022352,-53329.518834,187500.0,187500.0,-82258.979351,187500.0,187500.0,187500.0,-41363.467737,-51830.923776,187500.0,187500.0
1680229551.165094,0,-84658.260305,-58097.168278,-76427.096299,-53894.079196,-187500.022352,-53220.911708,187500.0,187500.0,-82270.982238,187500.0,187500.0,187500.0,-41604.419542,-51655.283768,187500.0,187500.0
1680229551.165114,0,-84717.112448,-58910.168279,-76447.861069,-53963.973101,-187500.022352,-53284.815345,187500.0,187500.0,-82208.129133,187500.0,187500.0,187500.0,-41628.35826,-51495.625257,187500.0,187500.0
1680229551.165133,0,-84720.73343,-59005.610228,-76478.952346,-54182.103775,-187500.022352,-53286.625837,187500.0,187500.0,-82284.594451,187500.0,187500.0,187500.0,-41376.297638,-51894.91682,187500.0,187500.0
1680229551.165275,0,-84671.827814,-58001.413405,-76424.123517,-53733.012525,-187500.022352,-53219.704714,187500.0,187500.0,-82227.910427,187500.0,187500.0,187500.0,-41759.808869,-51413.415541,187500.0,187500.0
1680229551.165303,0,-84734.837381,-59502.087176,-76468.24586,-54228.841272,-187500.022352,-53285.284732,187500.0,187500.0,-82248.675197,187500.0,187500.0,187500.0,-41392.323839,-51810.069598,187500.0,187500.0
1680229551.165324,0,-84666.865726,-58105.192555,-76433.354787,-53892.447518,-187500.022352,-53237.541406,187500.0,187500.0,-82252.94438,187500.0,187500.0,187500.0,-41612.265004,-51646.655994,187500.0,187500.0
1680229551.165345,0,-84721.024003,-58903.373349,-76443.882459,-53955.211217,-187500.022352,-53270.621988,187500.0,187500.0,-82211.772467,187500.0,187500.0,187500.0,-41631.018118,-51494.462966,187500.0,187500.0
1680229551.165366,0,-84726.23196,-59046.938604,-76476.985392,-54200.320447,-187500.022352,-53296.326494,187500.0,187500.0,-82296.105599,187500.0,187500.0,187500.0,-41362.640722,-51908.551384,187500.0,187500.0
1680229551.165441,0,-84669.816157,-57968.332823,-76419.474354,-53731.53731,-187500.022352,-53245.92331,187500.0,187500.0,-82221.763697,187500.0,187500.0,187500.0,-41746.151953,-51399.646866,187500.0,187500.0
1680229551.165461,0,-84764.118166,-59533.960764,-76501.795829,-54253.517598,-187500.022352,-53309.938706,187500.0,187500.0,-82261.438043,187500.0,187500.0,187500.0,-41393.016743,-51844.670098,187500.0,187500.0
1680229551.16548,0,-84668.340941,-58108.232392,-76432.617179,-53912.854661,-187500.022352,-53240.67065,187500.0,187500.0,-82276.927802,187500.0,187500.0,187500.0,-41604.26308,-51682.73171,187500.0,187500.0
1680229551.1655,0,-84726.969567,-58882.094488,-76456.868822,-53957.17817,-187500.022352,-53281.149659,187500.0,187500.0,-82208.799685,187500.0,187500.0,187500.0,-41646.150249,-51470.859524,187500.0,187500.0
1680229551.16552,0,-84727.126029,-59086.747061,-76488.831817,-54228.058961,-187500.022352,-53273.907694,187500.0,187500.0,-82298.385477,187500.0,187500.0,187500.0,-41383.11492,-51932.154826,187500.0,187500.0
1680229551.165543,0,-84662.797709,-57935.207538,-76423.095336,-53730.464426,-187500.022352,-53247.912615,187500.0,187500.0,-82223.998871,187500.0,187500.0,187500.0,-41765.70973,-51375.86461,187500.0,187500.0
1680229551.165562,0,-84741.297035,-59531.569127,-76483.981488,-54247.460276,-187500.022352,-53316.174843,187500.0,187500.0,-82252.385587,187500.0,187500.0,187500.0,-41414.519121,-51815.232851,187500.0,187500.0
1680229551.165612,0,-84672.476014,-58109.148813,-76453.471357,-53906.126786,-187500.022352,-53258.194418,187500.0,187500.0,-82270.155224,187500.0,187500.0,187500.0,-41596.998763,-51690.644227,187500.0,187500.0
1680229551.165632,0,-84700.974488,-58851.763171,-76443.949514,-53960.955615,-187500.022352,-53277.305159,187500.0,187500.0,-82203.569377,187500.0,187500.0,187500.0,-41650.687653,-51466.009196,187500.0,187500.0
1680229551.165651,0,-84726.969567,-59100.985122,-76491.715192,-54238.765447,-187500.022352,-53294.851279,187500.0,187500.0,-82288.126026,187500.0,187500.0,187500.0,-41381.170318,-51939.352088,187500.0,187500.0
1680229551.165671,0,-84656.762738,-57895.264971,-76418.088546,-53722.037819,-187500.022352,-53235.529749,187500.0,187500.0,-82219.23795,187500.0,187500.0,187500.0,-41751.851648,-51397.702265,187500.0,187500.0
1680229551.165722,0,-84756.116242,-59573.63511,-76491.804599,-54273.321244,-187500.022352,-53327.820102,187500.0,187500.0,-82244.182497,187500.0,187500.0,187500.0,-41385.394798,-51827.3922,187500.0,187500.0
1680229551.165741,0,-84676.52168,-58122.470453,-76451.4597,-53920.320144,-187500.022352,-53258.417935,187500.0,187500.0,-82276.436064,187500.0,187500.0,187500.0,-41585.867594,-51712.236012,187500.0,187500.0
1680229551.165761,0,-84713.960852,-58842.375438,-76452.800805,-53937.083952,-187500.022352,-53294.471299,187500.0,187500.0,-82210.811342,187500.0,187500.0,187500.0,-41641.366975,-51449.424201,187500.0,187500.0
1680229551.16578,0,-84728.645948,-59162.58653,-76499.314785,-54260.938377,-187500.022352,-53317.135968,187500.0,187500.0,-82280.99582,187500.0,187500.0,187500.0,-41376.230583,-51960.876818,187500.0,187500.0
1680229551.1658,0,-84676.1417,-57860.15038,-76448.084587,-53712.001885,-187500.022352,-53242.168217,187500.0,187500.0,-82240.874438,187500.0,187500.0,187500.0,-41799.326754,-51412.812044,187500.0,187500.0
1680229551.165819,0,-84754.618675,-59618.718579,-76501.080573,-54295.963561,-187500.022352,-53318.521776,187500.0,187500.0,-82266.467186,187500.0,187500.0,187500.0,-41431.998185,-51838.188092,187500.0,187500.0
1680229551.165838,0,-84670.598468,-58119.430616,-76455.371255,-53939.117961,-187500.022352,-53247.242063,187500.0,187500.0,-82263.941439,187500.0,187500.0,187500.0,-41567.539164,-51704.859937,187500.0,187500.0
1680229551.165858,0,-84729.674128,-58825.23165,-76474.481997,-53946.40463,-187500.022352,-53307.882346,187500.0,187500.0,-82223.954168,187500.0,187500.0,187500.0,-41651.335853,-51461.784716,187500.0,187500.0
1680229551.165877,0,-84722.38746,-59208.631123,-76492.497503,-54300.500965,-187500.022352,-53312.442102,187500.0,187500.0,-82295.211529,187500.0,187500.0,187500.0,-41399.185824,-51979.808745,187500.0,187500.0
1680229551.165896,0,-84662.820061,-57818.687894,-76440.127366,-53707.732702,-187500.022352,-53253.99229,187500.0,187500.0,-82220.310833,187500.0,187500.0,187500.0,-41751.203448,-51412.365009,187500.0,187500.0
1680229551.165919,0,-84754.03753,-59617.422177,-76504.455686,-54286.732291,-187500.022352,-53331.038753,187500.0,187500.0,-82234.951226,187500.0,187500.0,187500.0,-41402.940917,-51831.929604,187500.0,187500.0
1680229551.165966,0,-84678.421578,-58136.641459,-76470.905718,-53941.599004,-187500.022352,-53266.285749,187500.0,187500.0,-82271.429273,187500.0,187500.0,187500.0,-41562.264152,-51721.735504,187500.0,187500.0
1680229551.165986,0,-84704.908395,-58764.859589,-76456.421787,-53933.060638,-187500.022352,-53285.798822,187500.0,187500.0,-82201.647127,187500.0,187500.0,187500.0,-41650.77706,-51428.100637,187500.0,187500.0
1680229551.317344,0,-84728.198913,-59215.627219,-76509.37307,-54304.948962,-187500.022352,-53318.946459,187500.0,187500.0,-82269.998761,187500.0,187500.0,187500.0,-41368.005141,-51984.189687,187500.0,187500.0
1680229551.31738,0,-84658.103843,-57773.78324,-76442.206078,-53703.932906,-187500.022352,-53237.988441,187500.0,187500.0,-82222.546008,187500.0,187500.0,187500.0,-41746.800154,-51415.717771,187500.0,187500.0
1680229551.317401,0,-84756.272704,-59613.86825,-76503.472209,-54306.044198,-187500.022352,-53338.280718,187500.0,187500.0,-82239.533334,187500.0,187500.0,187500.0,-41429.897121,-51827.660421,187500.0,187500.0
1680229551.317421,0,-84689.820968,-58133.109883,-76476.873633,-53971.997377,-187500.022352,-53269.280883,187500.0,187500.0,-82287.433122,187500.0,187500.0,187500.0,-41601.670277,-51766.126068,187500.0,187500.0
1680229551.317443,0,-84734.099774,-58728.895632,-76472.447988,-53931.116036,-187500.022352,-53316.487767,187500.0,187500.0,-82230.749098,187500.0,187500.0,187500.0,-41657.348473,-51441.623442,187500.0,187500.0
1680229551.317463,0,-84729.852942,-59242.046981,-76493.23511,-54327.837149,-187500.022352,-53291.252648,187500.0,187500.0,-82292.685782,187500.0,187500.0,187500.0,-41365.859373,-51989.107071,187500.0,187500.0
1680229551.317483,0,-84661.322494,-57724.363533,-76437.132232,-53689.359568,-187500.022352,-53249.879569,187500.0,187500.0,-82222.233084,187500.0,187500.0,187500.0,-41722.414401,-51387.39811,187500.0,187500.0
1680229551.317504,0,-84745.923846,-59597.97616,-76484.182654,-54292.119061,-187500.022352,-53326.411942,187500.0,187500.0,-82237.164049,187500.0,187500.0,187500.0,-41407.120694,-51815.657534,187500.0,187500.0
1680229551.317595,0,-84682.623706,-58145.023363,-76463.37318,-53949.779743,-187500.022352,-53257.725031,187500.0,187500.0,-82264.232011,187500.0,187500.0,187500.0,-41555.983312,-51735.638289,187500.0,187500.0
1680229551.317616,0,-84714.117314,-58694.473945,-76453.426654,-53911.401798,-187500.022352,-53283.138965,187500.0,187500.0,-82202.004755,187500.0,187500.0,187500.0,-41669.776043,-51404.94423,187500.0,187500.0
1680229551.317635,0,-84724.890855,-59275.127563,-76483.310936,-54330.854634,-187500.022352,-53296.728825,187500.0,187500.0,-82269.171747,187500.0,187500.0,187500.0,-41370.642647,-51985.37433,187500.0,187500.0
1680229551.317655,0,-84688.859843,-57739.249794,-76454.253668,-53699.171984,-187500.022352,-53265.548142,187500.0,187500.0,-82230.033842,187500.0,187500.0,187500.0,-41737.412421,-51395.869421,187500.0,187500.0
1680229551.317675,0,-84749.321312,-59604.972256,-76476.672468,-54308.793462,-187500.022352,-53325.786093,187500.0,187500.0,-82243.802517,187500.0,187500.0,187500.0,-41429.740659,-51794.736301,187500.0,187500.0
1680229551.317699,0,-84676.745197,-58167.106887,-76443.122499,-53996.986627,-187500.022352,-53265.950473,187500.0,187500.0,-82263.628514,187500.0,187500.0,187500.0,-41545.366233,-51746.858865,187500.0,187500.0
1680229551.317719,0,-84700.34864,-58621.339038,-76423.363557,-53908.205498,-187500.022352,-53287.654017,187500.0,187500.0,-82197.288537,187500.0,187500.0,187500.0,-41644.227999,-51401.703227,187500.0,187500.0
1680229551.317739,0,-84739.68771,-59274.345252,-76487.356602,-54340.734105,-187500.022352,-53332.15634,187500.0,187500.0,-82275.586698,187500.0,187500.0,187500.0,-41328.219036,-51968.476411,187500.0,187500.0
1680229551.317759,0,-84662.55184,-57686.79025,-76422.894171,-53687.772594,-187500.022352,-53226.879624,187500.0,187500.0,-82230.369118,187500.0,187500.0,187500.0,-41711.283232,-51406.553555,187500.0,187500.0
1680229551.317779,0,-84746.974378,-59566.84018,-76474.705514,-54275.019976,-187500.022352,-53304.820157,187500.0,187500.0,-82236.895828,187500.0,187500.0,187500.0,-41422.789266,-51789.371883,187500.0,187500.0
1680229551.317801,0,-84658.416767,-58174.751183,-76430.694929,-53983.732043,-187500.022352,-53238.010792,187500.0,187500.0,-82264.813157,187500.0,187500.0,187500.0,-41576.569268,-51742.857902,187500.0,187500.0
1680229551.428795,0,-84696.548843,-58572.791049,-76430.046729,-53867.61473,-187500.022352,-53277.148697,187500.0,187500.0,-82174.713275,187500.0,187500.0,187500.0,-41636.494295,-51375.574038,187500.0,187500.0
1680229551.428837,0,-84725.069669,-59287.510429,-76479.891119,-54320.952811,-187500.022352,-53316.465416,187500.0,187500.0,-82273.463282,187500.0,187500.0,187500.0,-41322.407582,-51999.388874,187500.0,187500.0
1680229551.42886,0,-84629.605368,-57669.467648,-76399.760115,-53684.263371,-187500.022352,-53226.052609,187500.0,187500.0,-82207.503284,187500.0,187500.0,187500.0,-41690.987848,-51407.581736,187500.0,187500.0
1680229551.428881,0,-84732.13282,-59547.438866,-76472.023305,-54271.242532,-187500.022352,-53322.299221,187500.0,187500.0,-82199.25549,187500.0,187500.0,187500.0,-41379.203365,-51755.665452,187500.0,187500.0
1680229551.428905,0,-84679.338,-58212.905611,-76459.886308,-53991.890429,-187500.022352,-53289.755081,187500.0,187500.0,-82269.618782,187500.0,187500.0,187500.0,-41525.048497,-51779.827688,187500.0,187500.0
1680229551.428926,0,-84696.682953,-58572.008738,-76436.573438,-53872.621521,-187500.022352,-53298.472261,187500.0,187500.0,-82219.103839,187500.0,187500.0,187500.0,-41671.832403,-51391.24261,187500.0,187500.0
1680229551.428947,0,-84720.956948,-59329.330543,-76480.472264,-54337.023716,-187500.022352,-53318.544128,187500.0,187500.0,-82258.800537,187500.0,187500.0,187500.0,-41331.86237,-51994.918525,187500.0,187500.0
1680229551.428968,0,-84662.03775,-57693.182849,-76433.444194,-53692.935847,-187500.022352,-53242.279976,187500.0,187500.0,-82237.901656,187500.0,187500.0,187500.0,-41709.048058,-51435.052029,187500.0,187500.0
1680229551.428994,0,-84736.424355,-59562.392183,-76474.079665,-54280.630264,-187500.022352,-53309.402264,187500.0,187500.0,-82229.430345,187500.0,187500.0,187500.0,-41424.398592,-51780.811164,187500.0,187500.0
1680229551.429015,0,-84656.807441,-58242.700487,-76434.070043,-54015.337409,-187500.022352,-53229.51713,187500.0,187500.0,-82264.366122,187500.0,187500.0,187500.0,-41525.607291,-51785.147403,187500.0,187500.0
1680229551.429054,0,-84699.901605,-58535.508339,-76439.859145,-53858.070535,-187500.022352,-53293.286657,187500.0,187500.0,-82203.234101,187500.0,187500.0,187500.0,-41681.041322,-51368.801459,187500.0,187500.0
1680229551.429153,0,-84714.83257,-59354.096276,-76470.123407,-54341.024678,-187500.022352,-53311.302163,187500.0,187500.0,-82265.841337,187500.0,187500.0,187500.0,-41339.730184,-51987.609504,187500.0,187500.0
1680229551.429175,0,-84645.475107,-57684.823297,-76412.031223,-53692.421757,-187500.022352,-53243.241101,187500.0,187500.0,-82214.454676,187500.0,187500.0,187500.0,-41684.617601,-51429.598204,187500.0,187500.0
1680229551.429196,0,-84744.850963,-59565.43202,-76480.271099,-54275.44466,-187500.022352,-53344.338041,187500.0,187500.0,-82228.268055,187500.0,187500.0,187500.0,-41403.61147,-51766.103717,187500.0,187500.0
1680229551.444842,0,-84654.326398,-58263.711126,-76430.359653,-54037.085657,-187500.022352,-53242.369383,187500.0,187500.0,-82258.822889,187500.0,187500.0,187500.0,-41502.160311,-51796.122109,187500.0,187500.0
1680229551.843477,0,-84688.43516,-58487.116812,-76424.727014,-53859.009309,-187500.022352,-53295.141851,187500.0,187500.0,-82192.214691,187500.0,187500.0,187500.0,-41664.053996,-51371.058985,187500.0,187500.0
1680229551.843527,0,-84723.639157,-59374.302253,-76476.471302,-54360.761268,-187500.022352,-53316.845395,187500.0,187500.0,-82267.562421,187500.0,187500.0,187500.0,-41322.944024,-51990.403472,187500.0,187500.0
1680229551.843564,0,-84652.18063,-57650.9157,-76424.436441,-53692.779385,-187500.022352,-53235.060362,187500.0,187500.0,-82235.979406,187500.0,187500.0,187500.0,-41705.583537,-51433.912091,187500.0,187500.0
1680229551.843594,0,-84742.414623,-59547.528273,-76480.114636,-54264.537008,-187500.022352,-53335.956137,187500.0,187500.0,-82231.732575,187500.0,187500.0,187500.0,-41445.0069,-51753.653795,187500.0,187500.0
1680229551.843615,0,-84663.468261,-58278.217408,-76441.691988,-54037.242119,-187500.022352,-53254.819304,187500.0,187500.0,-82267.025979,187500.0,187500.0,187500.0,-41504.887224,-51802.939391,187500.0,187500.0
1680229551.843636,0,-84696.526491,-58452.404553,-76435.455851,-53838.222186,-187500.022352,-53276.612255,187500.0,187500.0,-82195.366287,187500.0,187500.0,187500.0,-41642.171638,-51351.076526,187500.0,187500.0
1680229551.843714,0,-84726.634291,-59408.187498,-76483.556805,-54372.652396,-187500.022352,-53307.457663,187500.0,187500.0,-82270.4905,187500.0,187500.0,187500.0,-41327.459076,-51994.359731,187500.0,187500.0
1680229551.843735,0,-84643.485802,-57634.017781,-76414.69108,-53696.288609,-187500.022352,-53235.373287,187500.0,187500.0,-82226.502267,187500.0,187500.0,187500.0,-41699.235642,-51423.339715,187500.0,187500.0
1680229551.843755,0,-84733.317463,-59529.445711,-76464.982505,-54264.067622,-187500.022352,-53310.966886,187500.0,187500.0,-82216.443982,187500.0,187500.0,187500.0,-41411.881615,-51724.462417,187500.0,187500.0
1680229551.843776,0,-84671.380779,-58312.035598,-76446.743482,-54052.396602,-187500.022352,-53249.924272,187500.0,187500.0,-82263.784976,187500.0,187500.0,187500.0,-41506.988288,-51811.410703,187500.0,187500.0
1680229551.843797,0,-84674.308857,-58428.15291,-76413.685252,-53848.436934,-187500.022352,-53261.144848,187500.0,187500.0,-82195.656859,187500.0,187500.0,187500.0,-41673.151156,-51338.313679,187500.0,187500.0
1680229551.843822,0,-84723.080364,-59421.755007,-76479.242918,-54383.671806,-187500.022352,-53308.888174,187500.0,187500.0,-82252.989084,187500.0,187500.0,187500.0,-41322.496989,-51989.844679,187500.0,187500.0
1680229551.843842,0,-84643.239932,-57631.782607,-76420.480182,-53707.218612,-187500.022352,-53235.149769,187500.0,187500.0,-82220.020261,187500.0,187500.0,187500.0,-41696.151101,-51431.85573,187500.0,187500.0
1680229551.843861,0,-84739.17362,-59531.814996,-76478.013572,-54258.79261,-187500.022352,-53322.008648,187500.0,187500.0,-82220.914331,187500.0,187500.0,187500.0,-41439.284854,-51740.376859,187500.0,187500.0
1680229551.843882,0,-84673.19127,-58339.86352,-76458.858127,-54063.371308,-187500.022352,-53264.072927,187500.0,187500.0,-82264.232011,187500.0,187500.0,187500.0,-41483.69777,-51822.899499,187500.0,187500.0
1680229551.843901,0,-84677.54986,-58383.56118,-76428.705624,-53828.566233,-187500.022352,-53262.910636,187500.0,187500.0,-82194.271051,187500.0,187500.0,187500.0,-41676.2804,-51362.498267,187500.0,187500.0
1680229551.843922,0,-84720.532265,-59451.505178,-76484.89791,-54386.801051,-187500.022352,-53306.27302,187500.0,187500.0,-82252.564401,187500.0,187500.0,187500.0,-41331.191818,-52001.758158,187500.0,187500.0
1680229551.843976,0,-84645.050424,-57618.908002,-76424.950531,-53697.96499,-187500.022352,-53236.803798,187500.0,187500.0,-82227.373985,187500.0,187500.0,187500.0,-41720.715668,-51440.282338,187500.0,187500.0
1680229551.843996,0,-84720.241692,-59524.505976,-76460.087473,-54260.670157,-187500.022352,-53319.751122,187500.0,187500.0,-82212.130095,187500.0,187500.0,187500.0,-41464.944656,-51710.67139,187500.0,187500.0
1680229551.844017,0,-84661.233087,-58345.697325,-76446.139985,-54064.868875,-187500.022352,-53262.977691,187500.0,187500.0,-82241.768508,187500.0,187500.0,187500.0,-41453.567619,-51803.475833,187500.0,187500.0
1680229551.844037,0,-84660.741348,-58341.383438,-76409.281958,-53817.368009,-187500.022352,-53255.087525,187500.0,187500.0,-82177.21667,187500.0,187500.0,187500.0,-41652.341682,-51333.463351,187500.0,187500.0
1680229551.844057,0,-84712.619747,-59448.71121,-76478.415904,-54381.458984,-187500.022352,-53299.388683,187500.0,187500.0,-82238.907485,187500.0,187500.0,187500.0,-41296.792483,-51999.746501,187500.0,187500.0
1680229551.844076,0,-84625.202075,-57586.185048,-76412.925293,-53690.499507,-187500.022352,-53224.577394,187500.0,187500.0,-82209.045554,187500.0,187500.0,187500.0,-41707.28227,-51426.625422,187500.0,187500.0
1680229551.844096,0,-84715.547826,-59481.612978,-76459.886308,-54252.020031,-187500.022352,-53322.500387,187500.0,187500.0,-82205.02224,187500.0,187500.0,187500.0,-41452.651197,-51717.779245,187500.0,187500.0
1680229551.844116,0,-84661.769529,-58360.047145,-76447.458738,-54089.567553,-187500.022352,-53244.00106,187500.0,187500.0,-82242.193191,187500.0,187500.0,187500.0,-41464.251752,-51830.007354,187500.0,187500.0
1680229551.844136,0,-84672.565421,-58311.499156,-76427.073947,-53813.299991,-187500.022352,-53258.663804,187500.0,187500.0,-82191.0524,187500.0,187500.0,187500.0,-41692.820691,-51336.302022,187500.0,187500.0
1680229551.844156,0,-84707.076515,-59480.853019,-76474.5267,-54407.766987,-187500.022352,-53298.673427,187500.0,187500.0,-82241.656749,187500.0,187500.0,187500.0,-41307.744838,-52005.960286,187500.0,187500.0
1680229551.844179,0,-84632.913427,-57594.186973,-76420.83781,-53704.178775,-187500.022352,-53218.900051,187500.0,187500.0,-82204.552854,187500.0,187500.0,187500.0,-41673.32997,-51454.609806,187500.0,187500.0
1680229551.844227,0,-84723.259178,-59489.70431,-76467.59766,-54256.244511,-187500.022352,-53331.284622,187500.0,187500.0,-82209.6267,187500.0,187500.0,187500.0,-41464.363511,-51698.310876,187500.0,187500.0
1680229551.844248,0,-84660.696645,-58381.728337,-76449.604505,-54094.462585,-187500.022352,-53245.40922,187500.0,187500.0,-82259.784014,187500.0,187500.0,187500.0,-41485.888241,-51845.161837,187500.0,187500.0
1680229551.844268,0,-84686.378799,-58271.623644,-76432.863049,-53787.282561,-187500.022352,-53279.36152,187500.0,187500.0,-82202.675307,187500.0,187500.0,187500.0,-41696.933412,-51332.457522,187500.0,187500.0
1680229551.844287,0,-84722.968605,-59510.647894,-76485.456703,-54415.657153,-187500.022352,-53350.171846,187500.0,187500.0,-82264.991971,187500.0,187500.0,187500.0,-41325.246254,-52041.454857,187500.0,187500.0
1680229551.844307,0,-84653.499383,-57558.312423,-76442.563706,-53679.681263,-187500.022352,-53262.642415,187500.0,187500.0,-82233.118383,187500.0,187500.0,187500.0,-41664.299865,-51465.025719,187500.0,187500.0
1680229551.844328,0,-84700.974488,-59475.667414,-76455.572421,-54243.079334,-187500.022352,-53286.514078,187500.0,187500.0,-82213.068868,187500.0,187500.0,187500.0,-41454.729909,-51708.547975,187500.0,187500.0
1680229551.844349,0,-84674.532375,-58405.532945,-76476.31484,-54095.490765,-187500.022352,-53272.231313,187500.0,187500.0,-82249.390453,187500.0,187500.0,187500.0,-41453.098232,-51855.06366,187500.0,187500.0
1680229551.844368,0,-84650.526601,-58226.003733,-76415.272226,-53783.505116,-187500.022352,-53260.966034,187500.0,187500.0,-82192.997002,187500.0,187500.0,187500.0,-41688.819729,-51324.075618,187500.0,187500.0
1680229551.844388,0,-84711.278643,-59522.315505,-76483.243881,-54423.301449,-187500.022352,-53320.913413,187500.0,187500.0,-82228.312758,187500.0,187500.0,187500.0,-41294.825529,-52010.341228,187500.0,187500.0
1680229551.844408,0,-84635.26036,-57566.113182,-76430.96315,-53703.910554,-187500.022352,-53243.263452,187500.0,187500.0,-82229.318587,187500.0,187500.0,187500.0,-41688.216232,-51452.598149,187500.0,187500.0
1680229551.844468,0,-84707.165922,-59457.897777,-76462.836738,-54249.874264,-187500.022352,-53316.510119,187500.0,187500.0,-82202.876473,187500.0,187500.0,187500.0,-41452.002996,-51691.381835,187500.0,187500.0
1680229551.844488,0,-84666.217526,-58427.214137,-76467.798825,-54118.893041,-187500.022352,-53264.207037,187500.0,187500.0,-82250.709206,187500.0,187500.0,187500.0,-41444.559866,-51875.336692,187500.0,187500.0
1680229551.844509,0,-84668.028017,-58186.776422,-76438.071005,-53769.803497,-187500.022352,-53266.732784,187500.0,187500.0,-82198.517883,187500.0,187500.0,187500.0,-41720.849779,-51324.075618,187500.0,187500.0
1680229551.844529,0,-84704.439009,-59538.073485,-76481.70161,-54429.045848,-187500.022352,-53304.060197,187500.0,187500.0,-82237.700491,187500.0,187500.0,187500.0,-41310.985841,-52026.389781,187500.0,187500.0
1680229551.844556,0,-84630.164162,-57561.754592,-76437.825136,-53709.900821,-187500.022352,-53239.709525,187500.0,187500.0,-82229.028014,187500.0,187500.0,187500.0,-41673.262915,-51437.600128,187500.0,187500.0
1680229551.844582,0,-84694.045448,-59427.141777,-76458.679314,-54241.246491,-187500.022352,-53322.92507,187500.0,187500.0,-82187.654935,187500.0,187500.0,187500.0,-41446.079784,-51665.610274,187500.0,187500.0
1680229551.844609,0,-84651.823002,-58451.421076,-76463.350828,-54130.761818,-187500.022352,-53288.123404,187500.0,187500.0,-82241.634398,187500.0,187500.0,187500.0,-41415.234377,-51874.263808,187500.0,187500.0
1680229551.844628,0,-84645.609217,-58141.312974,-76428.951493,-53759.007604,-187500.022352,-53269.817325,187500.0,187500.0,-82184.928022,187500.0,187500.0,187500.0,-41693.424188,-51305.143691,187500.0,187500.0
1680229551.844648,0,-84693.30784,-59544.846063,-76485.970793,-54436.131351,-187500.022352,-53313.96202,187500.0,187500.0,-82232.671348,187500.0,187500.0,187500.0,-41310.181178,-52016.197385,187500.0,187500.0
1680229551.844668,0,-84616.104915,-57538.66524,-76435.277037,-53721.188452,-187500.022352,-53263.402374,187500.0,187500.0,-82213.851179,187500.0,187500.0,187500.0,-41691.099607,-51471.731242,187500.0,187500.0
1680229551.844689,0,-84705.578948,-59405.706454,-76478.907642,-54239.033668,-187500.022352,-53346.617919,187500.0,187500.0,-82197.757923,187500.0,187500.0,187500.0,-41482.535479,-51668.650111,187500.0,187500.0
1680229551.844747,0,-84664.496441,-58485.93217,-76484.428523,-54154.074687,-187500.022352,-53257.926197,187500.0,187500.0,-82265.729578,187500.0,187500.0,187500.0,-41442.123525,-51888.680683,187500.0,187500.0
1680229551.844767,5,-84651.845354,-58115.742578,-76441.98256,-53765.780183,-187500.022352,-53258.73086,187500.0,187500.0,-82193.756961,187500.0,187500.0,187500.0,-41702.92368,-51313.436188,187500.0,187500.0
1680229551.883631,5,-84701.823855,-59573.188075,-76496.744334,-54452.202255,-187500.022352,-53311.033942,187500.0,187500.0,-82243.757813,187500.0,187500.0,187500.0,-41304.615594,-52025.763932,187500.0,187500.0
1680229551.883665,5,-84621.04465,-57547.494179,-76444.79888,-53714.505281,-187500.022352,-53240.245967,187500.0,187500.0,-82221.137848,187500.0,187500.0,187500.0,-41656.566162,-51480.895457,187500.0,187500.0
1680229551.883689,5,-84701.980317,-59396.653997,-76483.914433,-54232.082275,-187500.022352,-53325.562576,187500.0,187500.0,-82202.004755,187500.0,187500.0,187500.0,-41494.784235,-51648.198265,187500.0,187500.0
1680229552.339884,5,-84645.363348,-58510.832013,-76472.447988,-54172.112545,-187500.022352,-53255.489857,187500.0,187500.0,-82243.087261,187500.0,187500.0,187500.0,-41422.878673,-51900.013018,187500.0,187500.0
1680229552.339933,5,-84662.864764,-58073.721298,-76463.596697,-53747.205883,-187500.022352,-53276.835773,187500.0,187500.0,-82195.835673,187500.0,187500.0,187500.0,-41711.350287,-51292.224382,187500.0,187500.0
1680229552.33997,5,-84693.553709,-59592.544686,-76497.481942,-54467.669662,-187500.022352,-53313.269116,187500.0,187500.0,-82241.992026,187500.0,187500.0,187500.0,-41325.112143,-52021.204176,187500.0,187500.0
1680229552.340004,5,-84625.604406,-57548.634118,-76460.065122,-53732.274918,-187500.022352,-53244.984537,187500.0,187500.0,-82214.231159,187500.0,187500.0,187500.0,-41643.691557,-51490.462004,187500.0,187500.0
1680229552.340039,5,-84690.647982,-59375.93393,-76477.097151,-54233.848063,-187500.022352,-53326.166073,187500.0,187500.0,-82199.166083,187500.0,187500.0,187500.0,-41482.557831,-51632.283823,187500.0,187500.0
1680229552.340068,5,-84662.350674,-58555.37904,-76490.552901,-54197.772348,-187500.022352,-53298.58402,187500.0,187500.0,-82253.726691,187500.0,187500.0,187500.0,-41448.292607,-51903.991628,187500.0,187500.0
1680229552.340152,5,-84645.51981,-58055.616385,-76441.580229,-53764.752002,-187500.022352,-53262.105973,187500.0,187500.0,-82203.837598,187500.0,187500.0,187500.0,-41707.617546,-51323.986211,187500.0,187500.0
1680229552.340171,5,-84694.224262,-59601.686549,-76484.473227,-54483.070014,-187500.022352,-53312.151529,187500.0,187500.0,-82230.480877,187500.0,187500.0,187500.0,-41322.876969,-52025.249842,187500.0,187500.0
1680229552.340191,5,-84637.6967,-57555.473751,-76452.823156,-53738.242833,-187500.022352,-53235.350935,187500.0,187500.0,-82249.368101,187500.0,187500.0,187500.0,-41658.108432,-51495.178222,187500.0,187500.0
1680229552.340211,5,-84701.198006,-59340.551119,-76465.317782,-54213.8209,-187500.022352,-53294.672465,187500.0,187500.0,-82215.684022,187500.0,187500.0,187500.0,-41500.662744,-51606.087578,187500.0,187500.0
1680229552.340231,5,-84683.093093,-58572.545179,-76491.69284,-54193.078481,-187500.022352,-53283.295427,187500.0,187500.0,-82264.880212,187500.0,187500.0,187500.0,-41436.624996,-51884.992645,187500.0,187500.0
1680229552.34025,5,-84672.900697,-58025.262716,-76458.411093,-53741.439133,-187500.022352,-53266.93395,187500.0,187500.0,-82227.843371,187500.0,187500.0,187500.0,-41743.29093,-51301.053321,187500.0,187500.0
1680229552.34027,5,-84714.609052,-59611.498965,-76499.158323,-54476.208028,-187500.022352,-53314.029075,187500.0,187500.0,-82239.019244,187500.0,187500.0,187500.0,-41326.050916,-52015.504481,187500.0,187500.0
1680229552.340289,5,-84642.457621,-57554.736144,-76456.868822,-53748.32347,-187500.022352,-53238.61429,187500.0,187500.0,-82237.633435,187500.0,187500.0,187500.0,-41647.223133,-51512.165548,187500.0,187500.0
1680229552.34031,5,-84714.184369,-59313.281991,-76479.26527,-54205.886031,-187500.022352,-53317.001857,187500.0,187500.0,-82199.590766,187500.0,187500.0,187500.0,-41493.130206,-51595.157575,187500.0,187500.0
1680229552.340329,5,-84697.867596,-58612.39834,-76502.801657,-54216.793682,-187500.022352,-53299.008703,187500.0,187500.0,-82273.44093,187500.0,187500.0,187500.0,-41435.105078,-51921.649506,187500.0,187500.0
1680229552.340379,5,-84656.762738,-57977.921722,-76434.695892,-53741.193264,-187500.022352,-53252.986461,187500.0,187500.0,-82213.650014,187500.0,187500.0,187500.0,-41760.211201,-51290.503298,187500.0,187500.0
1680229552.340399,5,-84720.353451,-59621.132567,-76492.989241,-54478.242037,-187500.022352,-53324.422637,187500.0,187500.0,-82251.469165,187500.0,187500.0,187500.0,-41345.362824,-51990.850507,187500.0,187500.0
1680229552.340424,5,-84636.713223,-57568.258949,-76438.182764,-53769.803497,-187500.022352,-53239.106028,187500.0,187500.0,-82234.973578,187500.0,187500.0,187500.0,-41658.510763,-51513.774873,187500.0,187500.0
1680229552.340461,5,-84717.693593,-59278.234455,-76471.263346,-54202.488566,-187500.022352,-53310.765721,187500.0,187500.0,-82206.922139,187500.0,187500.0,187500.0,-41495.477139,-51607.026351,187500.0,187500.0
1680229552.340481,5,-84672.051331,-58635.040657,-76471.911546,-54244.711011,-187500.022352,-53285.888229,187500.0,187500.0,-82263.986142,187500.0,187500.0,187500.0,-41407.008935,-51930.41139,187500.0,187500.0
1680229552.340504,5,-84660.026093,-57943.365925,-76436.998121,-53755.096049,-187500.022352,-53266.352804,187500.0,187500.0,-82199.76958,187500.0,187500.0,187500.0,-41706.544662,-51285.720025,187500.0,187500.0
1680229552.340523,5,-84739.352434,-59612.348331,-76517.285587,-54488.322674,-187500.022352,-53340.627651,187500.0,187500.0,-82258.085282,187500.0,187500.0,187500.0,-41351.263684,-52012.710513,187500.0,187500.0
1680229552.340546,5,-84637.361424,-57585.31333,-76442.317837,-53811.176576,-187500.022352,-53241.117685,187500.0,187500.0,-82251.670331,187500.0,187500.0,187500.0,-41668.5914,-51539.389973,187500.0,187500.0
1680229552.34057,5,-84713.245596,-59258.631975,-76467.284735,-54227.299002,-187500.022352,-53309.826947,187500.0,187500.0,-82203.636432,187500.0,187500.0,187500.0,-41524.445,-51573.543438,187500.0,187500.0
1680229552.340593,5,-84674.241802,-58654.68784,-76471.375104,-54262.525351,-187500.022352,-53278.959188,187500.0,187500.0,-82270.468148,187500.0,187500.0,187500.0,-41451.66772,-51935.999326,187500.0,187500.0
1680229552.340613,5,-84683.271907,-57916.700294,-76458.209927,-53744.411915,-187500.022352,-53278.623912,187500.0,187500.0,-82211.124267,187500.0,187500.0,187500.0,-41726.728288,-51293.85606,187500.0,187500.0
1680229552.340673,5,-84720.353451,-59627.681628,-76492.698669,-54501.130223,-187500.022352,-53314.096131,187500.0,187500.0,-82272.055122,187500.0,187500.0,187500.0,-41338.746707,-52026.322726,187500.0,187500.0
1680229552.340698,5,-84646.816212,-57582.273493,-76451.750273,-53809.500195,-187500.022352,-53250.013679,187500.0,187500.0,-82245.814174,187500.0,187500.0,187500.0,-41636.583702,-51542.56392,187500.0,187500.0
1680229552.340719,5,-84711.435105,-59225.774911,-76469.229337,-54217.0172,-187500.022352,-53315.459587,187500.0,187500.0,-82220.556703,187500.0,187500.0,187500.0,-41518.722954,-51577.432642,187500.0,187500.0
1680229552.340738,5,-84691.564404,-58684.393309,-76492.475151,-54286.397014,-187500.022352,-53275.673482,187500.0,187500.0,-82278.425369,187500.0,187500.0,187500.0,-41409.311165,-51935.999326,187500.0,187500.0
1680229552.340757,5,-84662.216563,-57886.391328,-76443.055444,-53765.176685,-187500.022352,-53256.763906,187500.0,187500.0,-82208.531464,187500.0,187500.0,187500.0,-41758.177192,-51292.716121,187500.0,187500.0
1680229552.340777,5,-84738.994806,-59633.940117,-76513.195218,-54491.586029,-187500.022352,-53342.371087,187500.0,187500.0,-82261.661561,187500.0,187500.0,187500.0,-41353.543562,-52010.855318,187500.0,187500.0
1680229552.340796,5,-84655.600447,-57611.330761,-76466.100093,-53819.513776,-187500.022352,-53264.430554,187500.0,187500.0,-82244.540124,187500.0,187500.0,187500.0,-41628.268853,-51576.38211,187500.0,187500.0
1680229552.340816,5,-84725.807276,-59192.493164,-76483.176825,-54193.324351,-187500.022352,-53322.16511,187500.0,187500.0,-82216.332223,187500.0,187500.0,187500.0,-41526.903692,-51588.876735,187500.0,187500.0
1680229552.340835,5,-84683.942459,-58722.614792,-76481.388686,-54291.001474,-187500.022352,-53279.428575,187500.0,187500.0,-82269.909354,187500.0,187500.0,187500.0,-41406.42779,-51947.264605,187500.0,187500.0
1680229552.340855,5,-84663.982351,-57867.32529,-76440.842621,-53746.043592,-187500.022352,-53255.53456,187500.0,187500.0,-82209.894921,187500.0,187500.0,187500.0,-41733.992604,-51307.44592,187500.0,187500.0
1680229552.340877,5,-84731.305806,-59636.130588,-76501.348794,-54498.112738,-187500.022352,-53326.143721,187500.0,187500.0,-82258.71113,187500.0,187500.0,187500.0,-41352.247161,-51997.578382,187500.0,187500.0
1680229552.340925,5,-84653.96877,-57631.044999,-76454.208965,-53833.573024,-187500.022352,-53258.775563,187500.0,187500.0,-82256.878287,187500.0,187500.0,187500.0,-41660.611827,-51585.456918,187500.0,187500.0
1680229552.340944,5,-84718.028869,-59175.014099,-76470.369276,-54188.541077,-187500.022352,-53310.475148,187500.0,187500.0,-82214.991118,187500.0,187500.0,187500.0,-41523.573282,-51577.700863,187500.0,187500.0
1680229552.340964,5,-84688.301049,-58762.82558,-76483.199177,-54299.316323,-187500.022352,-53270.621988,187500.0,187500.0,-82277.374837,187500.0,187500.0,187500.0,-41385.640667,-51978.087661,187500.0,187500.0
1680229552.340983,5,-84677.482805,-57861.022098,-76449.693912,-53748.345822,-187500.022352,-53279.294465,187500.0,187500.0,-82213.560607,187500.0,187500.0,187500.0,-41701.739037,-51303.556717,187500.0,187500.0
1680229552.341003,5,-84735.798506,-59671.356937,-76501.102924,-54512.775482,-187500.022352,-53340.560596,187500.0,187500.0,-82259.962828,187500.0,187500.0,187500.0,-41333.91873,-52009.380103,187500.0,187500.0
1680229552.341022,5,-84652.962941,-57654.044945,-76454.767758,-53854.091925,-187500.022352,-53251.511246,187500.0,187500.0,-82246.395319,187500.0,187500.0,187500.0,-41645.300882,-51585.769842,187500.0,187500.0
1680229552.341042,5,-84725.069669,-59150.941271,-76471.643325,-54179.555676,-187500.022352,-53306.921221,187500.0,187500.0,-82213.60531,187500.0,187500.0,187500.0,-41540.873532,-51557.584293,187500.0,187500.0
1680229552.341062,5,-84685.641192,-58791.234647,-76468.469378,-54322.673896,-187500.022352,-53273.639473,187500.0,187500.0,-82263.717921,187500.0,187500.0,187500.0,-41390.781568,-51986.111937,187500.0,187500.0
1680229552.341081,5,-84665.994008,-57829.550842,-76438.38393,-53743.719011,-187500.022352,-53263.424726,187500.0,187500.0,-82208.35265,187500.0,187500.0,187500.0,-41716.468837,-51324.947336,187500.0,187500.0
1680229552.341101,5,-84736.513762,-59661.209245,-76498.800695,-54492.591857,-187500.022352,-53328.222433,187500.0,187500.0,-82260.63338,187500.0,187500.0,187500.0,-41350.481373,-51974.377271,187500.0,187500.0
1680229552.341148,5,-84640.065985,-57662.896235,-76441.133194,-53844.570082,-187500.022352,-53219.570603,187500.0,187500.0,-82250.731558,187500.0,187500.0,187500.0,-41621.786847,-51581.411252,187500.0,187500.0
1680229552.341169,5,-84695.945346,-59106.72952,-76444.038921,-54157.963891,-187500.022352,-53312.464453,187500.0,187500.0,-82204.597557,187500.0,187500.0,187500.0,-41531.329338,-51531.365696,187500.0,187500.0
1680229552.341189,5,-84677.572212,-58811.731197,-76462.747331,-54310.358084,-187500.022352,-53266.241046,187500.0,187500.0,-82264.656694,187500.0,187500.0,187500.0,-41362.663074,-51967.403527,187500.0,187500.0
1680229552.341208,5,-84669.547936,-57816.631534,-76438.38393,-53733.616022,-187500.022352,-53257.054479,187500.0,187500.0,-82214.722897,187500.0,187500.0,187500.0,-41723.219064,-51304.204917,187500.0,187500.0
1680229552.341228,5,-84736.379652,-59681.437574,-76486.171959,-54494.759976,-187500.022352,-53317.29243,187500.0,187500.0,-82267.607125,187500.0,187500.0,187500.0,-41340.981882,-51987.855373,187500.0,187500.0
1680229552.34125,5,-84635.506229,-57694.658064,-76425.509325,-53860.95391,-187500.022352,-53221.939888,187500.0,187500.0,-82249.904543,187500.0,187500.0,187500.0,-41591.857862,-51591.424834,187500.0,187500.0
1680229552.341269,5,-84696.146512,-59091.239761,-76437.847488,-54153.09121,-187500.022352,-53289.688026,187500.0,187500.0,-82207.413877,187500.0,187500.0,187500.0,-41543.0193,-51524.973097,187500.0,187500.0
1680229552.341289,5,-84694.783055,-58862.871988,-76471.419808,-54331.391076,-187500.022352,-53302.003837,187500.0,187500.0,-82278.224203,187500.0,187500.0,187500.0,-41370.754405,-51959.535713,187500.0,187500.0
1680229552.34131,5,-84641.742366,-57791.061138,-76408.589054,-53738.376944,-187500.022352,-53242.995232,187500.0,187500.0,-82221.070793,187500.0,187500.0,187500.0,-41699.906194,-51326.757828,187500.0,187500.0
1680229552.341329,5,-84705.73541,-59658.616443,-76463.060255,-54487.585066,-187500.022352,-53300.573325,187500.0,187500.0,-82229.87738,187500.0,187500.0,187500.0,-41312.438704,-51961.390908,187500.0,187500.0
1680229552.341351,5,-84636.355595,-57699.687207,-76441.244953,-53864.552541,-187500.022352,-53227.2149,187500.0,187500.0,-82240.226238,187500.0,187500.0,187500.0,-41587.879251,-51597.102177,187500.0,187500.0
1680229552.341398,5,-84703.567291,-59053.867645,-76461.048598,-54132.102922,-187500.022352,-53295.588886,187500.0,187500.0,-82218.254473,187500.0,187500.0,187500.0,-41548.853105,-51504.834176,187500.0,187500.0
1680229552.454956,5,-84672.2972,-58881.46864,-76466.725942,-54331.905166,-187500.022352,-53255.959243,187500.0,187500.0,-82261.415692,187500.0,187500.0,187500.0,-41353.834135,-51949.544483,187500.0,187500.0
1680229552.454998,5,-84641.362386,-57772.017452,-76423.65413,-53723.401275,-187500.022352,-53226.812569,187500.0,187500.0,-82205.558682,187500.0,187500.0,187500.0,-41700.599098,-51294.437205,187500.0,187500.0
1680229552.45502,5,-84738.883047,-59685.527943,-76502.131105,-54496.481061,-187500.022352,-53326.210776,187500.0,187500.0,-82249.34575,187500.0,187500.0,187500.0,-41358.751519,-51949.365669,187500.0,187500.0
1680229552.455041,5,-84653.789956,-57734.06419,-76457.494671,-53885.831402,-187500.022352,-53237.809627,187500.0,187500.0,-82273.664448,187500.0,187500.0,187500.0,-41604.01721,-51637.223558,187500.0,187500.0
1680229552.455061,5,-84704.595471,-59035.87449,-76458.433444,-54145.40221,-187500.022352,-53294.560706,187500.0,187500.0,-82223.753002,187500.0,187500.0,187500.0,-41565.259286,-51522.96144,187500.0,187500.0
1680229552.455081,5,-84715.145494,-58932.922355,-76506.377936,-54364.181085,-187500.022352,-53310.855128,187500.0,187500.0,-82287.321363,187500.0,187500.0,187500.0,-41363.735958,-51985.843716,187500.0,187500.0
1680229552.4551,5,-84648.380834,-57759.209902,-76431.052557,-53753.039688,-187500.022352,-53239.508359,187500.0,187500.0,-82234.414784,187500.0,187500.0,187500.0,-41727.801171,-51329.194168,187500.0,187500.0
1680229552.455119,5,-84733.272759,-59694.446289,-76499.605358,-54516.016485,-187500.022352,-53320.980468,187500.0,187500.0,-82253.480822,187500.0,187500.0,187500.0,-41361.433728,-51963.894303,187500.0,187500.0
1680229552.455139,5,-84669.458529,-57759.276957,-76470.615145,-53915.559222,-187500.022352,-53278.556857,187500.0,187500.0,-82271.831604,187500.0,187500.0,187500.0,-41579.340885,-51657.071907,187500.0,187500.0
1680229552.455167,5,-84696.63825,-59007.890106,-76451.32559,-54149.604338,-187500.022352,-53319.393494,187500.0,187500.0,-82224.602368,187500.0,187500.0,187500.0,-41554.284579,-51521.240356,187500.0,187500.0
1680229552.45525,5,-84684.657715,-58944.142931,-76477.320668,-54376.072213,-187500.022352,-53288.97277,187500.0,187500.0,-82269.864651,187500.0,187500.0,187500.0,-41330.163637,-52014.766874,187500.0,187500.0
1680229552.455269,5,-84648.783165,-57725.168195,-76433.243028,-53734.331278,-187500.022352,-53234.501569,187500.0,187500.0,-82212.420668,187500.0,187500.0,187500.0,-41689.110302,-51302.327371,187500.0,187500.0
1680229552.455289,5,-84718.945291,-59682.085774,-76494.240939,-54500.593782,-187500.022352,-53311.235107,187500.0,187500.0,-82243.109613,187500.0,187500.0,187500.0,-41335.215132,-51953.85837,187500.0,187500.0
1680229552.918315,5,-84642.05529,-57762.89794,-76459.215755,-53923.337629,-187500.022352,-53234.38981,187500.0,187500.0,-82255.224258,187500.0,187500.0,187500.0,-41633.722679,-51643.52675,187500.0,187500.0
1680229552.91837,5,-84698.068762,-58960.929091,-76461.249764,-54134.963946,-187500.022352,-53307.412959,187500.0,187500.0,-82214.074697,187500.0,187500.0,187500.0,-41571.271905,-51502.353132,187500.0,187500.0
1680229552.918412,5,-84695.900642,-58955.050582,-76489.63648,-54390.734958,-187500.022352,-53290.559744,187500.0,187500.0,-82268.478843,187500.0,187500.0,187500.0,-41340.624254,-52000.774682,187500.0,187500.0
1680229552.918452,5,-84666.441043,-57712.15948,-76450.409168,-53751.877398,-187500.022352,-53267.112764,187500.0,187500.0,-82235.085337,187500.0,187500.0,187500.0,-41703.862453,-51337.106685,187500.0,187500.0
1680229552.918486,5,-84727.081326,-59673.100373,-76490.552901,-54504.661799,-187500.022352,-53329.183558,187500.0,187500.0,-82255.559534,187500.0,187500.0,187500.0,-41335.751574,-51944.694155,187500.0,187500.0
1680229552.91851,5,-84658.953209,-57794.078624,-76467.664715,-53934.044115,-187500.022352,-53253.858179,187500.0,187500.0,-82268.389436,187500.0,187500.0,187500.0,-41577.329228,-51667.845448,187500.0,187500.0
1680229552.918533,5,-84693.509006,-58933.257631,-76452.778453,-54122.871652,-187500.022352,-53281.373177,187500.0,187500.0,-82215.348746,187500.0,187500.0,187500.0,-41607.101751,-51486.863373,187500.0,187500.0
1680229552.918619,5,-84686.848186,-58987.661777,-76480.181692,-54386.555181,-187500.022352,-53286.983465,187500.0,187500.0,-82264.34377,187500.0,187500.0,187500.0,-41349.788469,-52011.280002,187500.0,187500.0
1680229552.918642,5,-84657.925029,-57684.800945,-76440.283828,-53718.707409,-187500.022352,-53265.257569,187500.0,187500.0,-82217.852142,187500.0,187500.0,187500.0,-41695.145273,-51316.230156,187500.0,187500.0
1680229552.918664,5,-84732.959835,-59685.885571,-76498.532474,-54466.775592,-187500.022352,-53336.760799,187500.0,187500.0,-82251.893848,187500.0,187500.0,187500.0,-41327.526132,-51950.952643,187500.0,187500.0
1680229552.918687,5,-84649.073738,-57802.594638,-76463.127311,-53921.0354,-187500.022352,-53253.500551,187500.0,187500.0,-82256.073625,187500.0,187500.0,187500.0,-41545.388585,-51680.250666,187500.0,187500.0
1680229552.918709,5,-84714.251425,-58922.171166,-76485.166131,-54093.322646,-187500.022352,-53314.47611,187500.0,187500.0,-82219.75204,187500.0,187500.0,187500.0,-41573.909411,-51474.994597,187500.0,187500.0
1680229552.918739,5,-84707.545901,-59035.181586,-76512.904646,-54387.225734,-187500.022352,-53283.384834,187500.0,187500.0,-82283.208642,187500.0,187500.0,187500.0,-41363.400681,-52029.340211,187500.0,187500.0
1680229552.91876,5,-84647.30795,-57666.114887,-76448.486918,-53732.297269,-187500.022352,-53241.899996,187500.0,187500.0,-82226.815191,187500.0,187500.0,187500.0,-41712.266709,-51332.345764,187500.0,187500.0
1680229552.918782,5,-84732.825724,-59710.070158,-76511.340023,-54504.170061,-187500.022352,-53339.867692,187500.0,187500.0,-82234.638302,187500.0,187500.0,187500.0,-41339.104335,-51930.79137,187500.0,187500.0
1680229552.918805,5,-84669.994971,-57794.54801,-76487.624823,-53939.296775,-187500.022352,-53284.301255,187500.0,187500.0,-82277.196023,187500.0,187500.0,187500.0,-41574.647018,-51692.432367,187500.0,187500.0
1680229552.918826,5,-84696.437084,-58899.238276,-76466.033037,-54106.934858,-187500.022352,-53290.917372,187500.0,187500.0,-82221.428421,187500.0,187500.0,187500.0,-41580.749045,-51480.649588,187500.0,187500.0
1680229552.91885,5,-84700.818026,-59061.780162,-76502.511084,-54420.798054,-187500.022352,-53288.995122,187500.0,187500.0,-82273.575041,187500.0,187500.0,187500.0,-41320.083001,-52040.963118,187500.0,187500.0
1680229552.918905,5,-84651.823002,-57622.193709,-76443.435424,-53727.648107,-187500.022352,-53253.031165,187500.0,187500.0,-82242.841392,187500.0,187500.0,187500.0,-41720.380392,-51325.237909,187500.0,187500.0
1680229552.918927,5,-84732.982186,-59719.18967,-76493.905663,-54500.929058,-187500.022352,-53346.148532,187500.0,187500.0,-82261.39334,187500.0,187500.0,187500.0,-41338.277321,-51922.253003,187500.0,187500.0
1680229552.918949,5,-84653.477031,-57813.099958,-76459.953363,-53948.282176,-187500.022352,-53256.786258,187500.0,187500.0,-82277.777168,187500.0,187500.0,187500.0,-41543.6675,-51694.622838,187500.0,187500.0
1680229552.918973,5,-84696.951174,-58856.345279,-76455.594773,-54085.454832,-187500.022352,-53291.364407,187500.0,187500.0,-82219.081488,187500.0,187500.0,187500.0,-41599.748027,-51458.499009,187500.0,187500.0
1680229552.918994,5,-84701.779151,-59087.663482,-76494.665622,-54425.268403,-187500.022352,-53302.182651,187500.0,187500.0,-82294.362163,187500.0,187500.0,187500.0,-41345.273417,-52050.59672,187500.0,187500.0
1680229552.919016,5,-84628.063098,-57600.646627,-76419.541409,-53733.347801,-187500.022352,-53235.41799,187500.0,187500.0,-82211.459543,187500.0,187500.0,187500.0,-41712.110247,-51313.950278,187500.0,187500.0
1680229552.919037,5,-84726.74605,-59713.311161,-76491.022288,-54497.017502,-187500.022352,-53322.656849,187500.0,187500.0,-82221.920159,187500.0,187500.0,187500.0,-41336.332719,-51903.946925,187500.0,187500.0
1680229552.91906,5,-84668.407997,-57853.556616,-76466.100093,-53965.940054,-187500.022352,-53282.714281,187500.0,187500.0,-82273.06095,187500.0,187500.0,187500.0,-41562.577076,-51690.532469,187500.0,187500.0
1680229552.919081,5,-84698.493445,-58838.843863,-76439.456813,-54088.159393,-187500.022352,-53307.323552,187500.0,187500.0,-82209.894921,187500.0,187500.0,187500.0,-41591.164957,-51455.079193,187500.0,187500.0
1680229552.919103,5,-84709.95989,-59116.20666,-76483.243881,-54439.484112,-187500.022352,-53304.820157,187500.0,187500.0,-82272.502157,187500.0,187500.0,187500.0,-41323.815742,-52046.774572,187500.0,187500.0
1680229552.919126,5,-84643.84343,-57579.188952,-76420.279017,-53737.862854,-187500.022352,-53228.176025,187500.0,187500.0,-82222.098973,187500.0,187500.0,187500.0,-41717.094686,-51312.69858,187500.0,187500.0
1680229552.919179,5,-84726.74605,-59704.169298,-76472.09036,-54507.858098,-187500.022352,-53327.820102,187500.0,187500.0,-82239.399223,187500.0,187500.0,187500.0,-41346.659225,-51896.235573,187500.0,187500.0
1680229552.919202,5,-84650.280732,-57850.650889,-76443.010741,-53994.438528,-187500.022352,-53257.255644,187500.0,187500.0,-82261.080415,187500.0,187500.0,187500.0,-41514.274956,-51668.963035,187500.0,187500.0
1680229552.919223,5,-84678.175709,-58766.223045,-76426.135174,-54076.581189,-187500.022352,-53264.654072,187500.0,187500.0,-82205.849255,187500.0,187500.0,187500.0,-41594.584774,-51432.772152,187500.0,187500.0
1680229552.919245,5,-84705.22132,-59115.871384,-76483.914433,-54431.146912,-187500.022352,-53299.008703,187500.0,187500.0,-82276.480767,187500.0,187500.0,187500.0,-41337.986748,-52019.773664,187500.0,187500.0
1680229552.919266,5,-84646.838563,-57546.622461,-76423.318854,-53714.460577,-187500.022352,-53238.167255,187500.0,187500.0,-82231.196133,187500.0,187500.0,187500.0,-41691.099607,-51318.755903,187500.0,187500.0
1680229552.919288,5,-84724.734393,-59686.086736,-76475.197253,-54487.227438,-187500.022352,-53322.947421,187500.0,187500.0,-82241.92497,187500.0,187500.0,187500.0,-41366.418167,-51883.38332,187500.0,187500.0
1680229552.91931,5,-84656.650979,-57881.384537,-76455.214793,-53988.716482,-187500.022352,-53256.719203,187500.0,187500.0,-82261.750968,187500.0,187500.0,187500.0,-41538.772468,-51697.21564,187500.0,187500.0
1680229552.919332,5,-84687.518738,-58753.035516,-76440.932028,-54058.52098,-187500.022352,-53286.245857,187500.0,187500.0,-82224.222389,187500.0,187500.0,187500.0,-41625.743106,-51400.295067,187500.0,187500.0
1680229552.919354,5,-84717.827704,-59165.313442,-76494.866788,-54439.148836,-187500.022352,-53320.958116,187500.0,187500.0,-82280.548785,187500.0,187500.0,187500.0,-41316.596129,-52030.614261,187500.0,187500.0
1680229552.919383,5,-84647.509116,-57554.602033,-76426.179877,-53720.607307,-187500.022352,-53236.177949,187500.0,187500.0,-82240.717976,187500.0,187500.0,187500.0,-41689.110302,-51341.889959,187500.0,187500.0
1680229552.919407,5,-84746.415585,-59699.20721,-76494.397401,-54487.607418,-187500.022352,-53347.087305,187500.0,187500.0,-82251.715034,187500.0,187500.0,187500.0,-41367.22283,-51885.730253,187500.0,187500.0
1680229552.919461,5,-84687.742256,-57931.743018,-76482.886253,-54007.626058,-187500.022352,-53290.604447,187500.0,187500.0,-82304.845131,187500.0,187500.0,187500.0,-41555.312759,-51751.888007,187500.0,187500.0
1680229552.919482,5,-84704.70723,-58743.401914,-76450.498575,-54059.236236,-187500.022352,-53275.829944,187500.0,187500.0,-82232.6937,187500.0,187500.0,187500.0,-41623.977318,-51429.329983,187500.0,187500.0
1680229552.9195,5,-84708.372916,-59216.454234,-76482.729791,-54473.41406,-187500.022352,-53300.998008,187500.0,187500.0,-82289.601241,187500.0,187500.0,187500.0,-41318.294861,-52049.434429,187500.0,187500.0
1680229552.919518,5,-84650.12427,-57545.795446,-76436.439328,-53721.993115,-187500.022352,-53259.155543,187500.0,187500.0,-82241.097956,187500.0,187500.0,187500.0,-41694.497072,-51320.678153,187500.0,187500.0
1680229552.919536,5,-84719.347622,-59692.635798,-76472.559747,-54489.529668,-187500.022352,-53322.120407,187500.0,187500.0,-82240.583866,187500.0,187500.0,187500.0,-41379.40453,-51865.636035,187500.0,187500.0
1680229552.919554,5,-84649.409014,-57911.157061,-76454.678351,-54007.760168,-187500.022352,-53237.85433,187500.0,187500.0,-82257.124157,187500.0,187500.0,187500.0,-41512.173893,-51713.666524,187500.0,187500.0
1680229552.919573,5,-84674.398264,-58658.621747,-76431.097261,-54028.659049,-187500.022352,-53263.469429,187500.0,187500.0,-82215.326394,187500.0,187500.0,187500.0,-41616.087152,-51391.779052,187500.0,187500.0
1680229552.919591,5,-84700.10277,-59194.571876,-76484.428523,-54466.663833,-187500.022352,-53307.971753,187500.0,187500.0,-82261.214526,187500.0,187500.0,187500.0,-41318.585434,-52031.083647,187500.0,187500.0
1680229552.919609,5,-84674.107692,-57519.733312,-76447.10111,-53712.225403,-187500.022352,-53267.202171,187500.0,187500.0,-82264.589639,187500.0,187500.0,187500.0,-41707.997526,-51354.406936,187500.0,187500.0
1680229552.919628,5,-84723.594454,-59666.864236,-76465.541299,-54479.024348,-187500.022352,-53312.464453,187500.0,187500.0,-82261.773319,187500.0,187500.0,187500.0,-41369.949743,-51876.141355,187500.0,187500.0
1680229552.91967,5,-84647.68793,-57946.159893,-76432.997159,-54031.140093,-187500.022352,-53236.088542,187500.0,187500.0,-82281.398151,187500.0,187500.0,187500.0,-41498.651087,-51695.427501,187500.0,187500.0
1680229552.919694,5,-84688.099884,-58620.355561,-76418.043842,-54007.201374,-187500.022352,-53265.078755,187500.0,187500.0,-82223.864761,187500.0,187500.0,187500.0,-41601.133835,-51355.636281,187500.0,187500.0
1680229552.919716,5,-84716.263082,-59214.822556,-76472.425636,-54445.362621,-187500.022352,-53289.263343,187500.0,187500.0,-82297.111427,187500.0,187500.0,187500.0,-41308.594204,-52018.700781,187500.0,187500.0
1680229552.919734,5,-84661.054273,-57491.614818,-76428.616217,-53701.787138,-187500.022352,-53209.15469,187500.0,187500.0,-82267.316552,187500.0,187500.0,187500.0,-41749.974102,-51328.613022,187500.0,187500.0
1680229552.919752,5,-84731.126992,-59632.397846,-76458.478148,-54451.084668,-187500.022352,-53292.616104,187500.0,187500.0,-82266.288372,187500.0,187500.0,187500.0,-41409.042944,-51792.299961,187500.0,187500.0
1680229552.91977,5,-84651.197153,-57934.671096,-76433.13127,-54011.939944,-187500.022352,-53210.629906,187500.0,187500.0,-82294.049238,187500.0,187500.0,187500.0,-41468.520936,-51685.324512,187500.0,187500.0
1680229552.919789,5,-84689.530395,-58556.429572,-76425.57638,-53985.184906,-187500.022352,-53251.421839,187500.0,187500.0,-82227.999834,187500.0,187500.0,187500.0,-41591.410827,-51321.415761,187500.0,187500.0
1680229552.919806,5,-84722.856846,-59227.272478,-76483.512102,-54465.72506,-187500.022352,-53287.676369,187500.0,187500.0,-82306.588567,187500.0,187500.0,187500.0,-41296.814835,-52006.496728,187500.0,187500.0
1680229552.919824,5,-84665.077587,-57479.634283,-76439.121537,-53711.465444,-187500.022352,-53199.811661,187500.0,187500.0,-82282.113407,187500.0,187500.0,187500.0,-41724.157837,-51335.564415,187500.0,187500.0
1680229552.919842,5,-84729.204742,-59605.933381,-76461.294468,-54456.694955,-187500.022352,-53278.758023,187500.0,187500.0,-82272.92684,187500.0,187500.0,187500.0,-41418.274214,-51780.274723,187500.0,187500.0
1680229553.062545,5,-84676.566383,-57966.701146,-76457.60643,-54014.085712,-187500.022352,-53267.984482,187500.0,187500.0,-82311.37184,187500.0,187500.0,187500.0,-41509.737552,-51705.6646,187500.0,187500.0
1680229553.062704,5,-84691.787921,-58526.321772,-76432.103089,-53968.599912,-187500.022352,-53272.253665,187500.0,187500.0,-82253.592581,187500.0,187500.0,187500.0,-41647.804278,-51334.379772,187500.0,187500.0
1680229553.062725,5,-84710.295166,-59219.136443,-76479.511139,-54455.08563,-187500.022352,-53274.690005,187500.0,187500.0,-82301.872349,187500.0,187500.0,187500.0,-41307.610727,-52004.73094,187500.0,187500.0
1680229553.062743,5,-84638.300197,-57451.471085,-76419.452002,-53701.407159,-187500.022352,-53205.287839,187500.0,187500.0,-82268.143567,187500.0,187500.0,187500.0,-41708.757485,-51326.556662,187500.0,187500.0
1680229553.062762,5,-84721.359279,-59564.314433,-76474.638459,-54431.817464,-187500.022352,-53284.256552,187500.0,187500.0,-82255.157203,187500.0,187500.0,187500.0,-41379.002199,-51765.276702,187500.0,187500.0
1680229553.06278,5,-84664.09411,-57978.368757,-76465.228375,-54029.061381,-187500.022352,-53208.014751,187500.0,187500.0,-82314.523436,187500.0,187500.0,187500.0,-41517.046573,-51726.764646,187500.0,187500.0
1680229553.062799,5,-84672.543069,-58466.84378,-76432.281903,-53946.091705,-187500.022352,-53248.940796,187500.0,187500.0,-82247.579962,187500.0,187500.0,187500.0,-41671.27361,-51323.226252,187500.0,187500.0
1680229553.062816,5,-84695.833587,-59225.37258,-76477.186558,-54457.454915,-187500.022352,-53270.554932,187500.0,187500.0,-82301.090038,187500.0,187500.0,187500.0,-41305.911995,-51992.973923,187500.0,187500.0
1680229553.062834,5,-84621.379926,-57420.670381,-76417.038014,-53698.277914,-187500.022352,-53214.362647,187500.0,187500.0,-82260.253401,187500.0,187500.0,187500.0,-41684.371732,-51304.629601,187500.0,187500.0
1680229553.062852,5,-84705.958927,-59564.381488,-76462.255593,-54447.821313,-187500.022352,-53299.433386,187500.0,187500.0,-82250.37393,187500.0,187500.0,187500.0,-41419.749429,-51760.828705,187500.0,187500.0
1680229553.062871,5,-84645.050424,-57984.359024,-76447.816366,-54049.669689,-187500.022352,-53197.420025,187500.0,187500.0,-82291.992878,187500.0,187500.0,187500.0,-41458.507354,-51741.405039,187500.0,187500.0
1680229553.062889,5,-84660.920162,-58436.981849,-76424.838772,-53946.53874,-187500.022352,-53250.706583,187500.0,187500.0,-82241.27677,187500.0,187500.0,187500.0,-41640.227037,-51346.896749,187500.0,187500.0
1680229553.062979,5,-84704.19314,-59275.395784,-76489.144741,-54488.814412,-187500.022352,-53302.920258,187500.0,187500.0,-82295.636212,187500.0,187500.0,187500.0,-41284.744893,-51991.230487,187500.0,187500.0
1680229553.062997,5,-84630.275921,-57436.361305,-76432.103089,-53707.643295,-187500.022352,-53236.714391,187500.0,187500.0,-82266.176613,187500.0,187500.0,187500.0,-41682.181261,-51301.835633,187500.0,187500.0
1680229553.063016,5,-84716.598358,-59566.393145,-76486.574291,-54436.332516,-187500.022352,-53296.013569,187500.0,187500.0,-82268.680008,187500.0,187500.0,187500.0,-41416.307261,-51771.848115,187500.0,187500.0
1680229553.063033,5,-84646.570342,-58038.271432,-76466.748293,-54070.076832,-187500.022352,-53202.091539,187500.0,187500.0,-82310.276605,187500.0,187500.0,187500.0,-41531.575207,-51776.989016,187500.0,187500.0
1680229553.063051,5,-84664.071758,-58413.646628,-76445.983523,-53945.957595,-187500.022352,-53263.581188,187500.0,187500.0,-82244.450718,187500.0,187500.0,187500.0,-41654.576856,-51296.001827,187500.0,187500.0
1680229553.39792,5,-84704.014326,-59298.239267,-76505.930901,-54501.4655,-187500.022352,-53299.455738,187500.0,187500.0,-82306.163884,187500.0,187500.0,187500.0,-41295.98782,-52017.002048,187500.0,187500.0
1680229553.397967,5,-84633.427517,-57462.959881,-76456.958229,-53724.720028,-187500.022352,-53258.082659,187500.0,187500.0,-82283.186291,187500.0,187500.0,187500.0,-41695.637011,-51375.037596,187500.0,187500.0
1680229553.397998,5,-84684.881232,-59554.099685,-76476.69482,-54446.547263,-187500.022352,-53300.796843,187500.0,187500.0,-82257.347674,187500.0,187500.0,187500.0,-41407.791246,-51781.615827,187500.0,187500.0
1680229553.398018,5,-84647.665578,-58079.532752,-76486.283718,-54090.796899,-187500.022352,-53243.911653,187500.0,187500.0,-82302.073515,187500.0,187500.0,187500.0,-41502.249718,-51760.582836,187500.0,187500.0
1680229553.398038,5,-84659.042616,-58399.207401,-76454.656,-53942.068391,-187500.022352,-53242.950528,187500.0,187500.0,-82253.011436,187500.0,187500.0,187500.0,-41675.006351,-51310.888089,187500.0,187500.0
1680229553.398102,5,-84679.203889,-59322.401502,-76495.067953,-54507.701636,-187500.022352,-53264.832886,187500.0,187500.0,-82300.73241,187500.0,187500.0,187500.0,-41318.40662,-51997.04194,187500.0,187500.0
1680229553.398122,5,-84613.73563,-57451.560492,-76444.642418,-53721.635487,-187500.022352,-53212.686266,187500.0,187500.0,-82265.550764,187500.0,187500.0,187500.0,-41689.490281,-51320.789912,187500.0,187500.0
1680229553.398142,5,-84716.821875,-59563.174494,-76501.505256,-54433.516196,-187500.022352,-53324.646154,187500.0,187500.0,-82274.603221,187500.0,187500.0,187500.0,-41412.641574,-51765.388461,187500.0,187500.0
1680229553.398161,5,-84666.418691,-58128.080741,-76494.486808,-54093.657922,-187500.022352,-53253.768772,187500.0,187500.0,-82335.019986,187500.0,187500.0,187500.0,-41469.012674,-51800.950086,187500.0,187500.0
1680229553.39818,5,-84654.639322,-58387.249218,-76445.782357,-53947.9469,-187500.022352,-53238.256662,187500.0,187500.0,-82267.54007,187500.0,187500.0,187500.0,-41674.760482,-51317.079522,187500.0,187500.0
1680229553.398199,5,-84696.571195,-59357.672555,-76500.65589,-54519.235136,-187500.022352,-53264.296444,187500.0,187500.0,-82307.236768,187500.0,187500.0,187500.0,-41336.377422,-52010.900022,187500.0,187500.0
1680229553.398218,5,-84629.895941,-57462.870474,-76442.496651,-53711.174871,-187500.022352,-53212.507452,187500.0,187500.0,-82295.837378,187500.0,187500.0,187500.0,-41702.16372,-51339.006584,187500.0,187500.0
1680229553.398238,5,-84706.607128,-59558.301813,-76477.924165,-54420.10515,-187500.022352,-53284.815345,187500.0,187500.0,-82291.12116,187500.0,187500.0,187500.0,-41438.547246,-51740.555673,187500.0,187500.0
1680229553.398257,5,-84668.050369,-58163.977643,-76485.076724,-54093.702625,-187500.022352,-53245.990365,187500.0,187500.0,-82334.192971,187500.0,187500.0,187500.0,-41464.408215,-51790.511822,187500.0,187500.0
1680229553.398276,5,-84662.149508,-58360.136552,-76435.209982,-53915.201594,-187500.022352,-53244.090467,187500.0,187500.0,-82277.866575,187500.0,187500.0,187500.0,-41674.849889,-51318.599441,187500.0,187500.0
1680229553.398296,5,-84706.62948,-59387.445079,-76492.855131,-54521.112683,-187500.022352,-53293.241953,187500.0,187500.0,-82327.263931,187500.0,187500.0,187500.0,-41289.438759,-52021.785321,187500.0,187500.0
1680229553.398346,5,-84633.159296,-57409.785081,-76437.579267,-53687.996112,-187500.022352,-53227.751342,187500.0,187500.0,-82322.860637,187500.0,187500.0,187500.0,-41696.799302,-51368.756755,187500.0,187500.0
1680229553.398365,5,-84697.755837,-59569.120058,-76461.652096,-54444.043868,-187500.022352,-53293.219601,187500.0,187500.0,-82293.691611,187500.0,187500.0,187500.0,-41449.879581,-51734.788923,187500.0,187500.0
1680229553.398385,5,-84638.881342,-58116.659,-76455.035979,-54095.177841,-187500.022352,-53218.63183,187500.0,187500.0,-82331.577817,187500.0,187500.0,187500.0,-41443.241113,-51766.506048,187500.0,187500.0
1680229553.398404,5,-84642.032938,-58302.06672,-76418.580284,-53899.600077,-187500.022352,-53232.735781,187500.0,187500.0,-82264.410825,187500.0,187500.0,187500.0,-41665.864487,-51262.451859,187500.0,187500.0
1680229553.398423,5,-84701.309765,-59410.109748,-76489.971756,-54551.175779,-187500.022352,-53302.540279,187500.0,187500.0,-82314.18816,187500.0,187500.0,187500.0,-41286.421274,-52052.943653,187500.0,187500.0
1680229553.398442,5,-84640.960055,-57384.415851,-76447.145813,-53682.497583,-187500.022352,-53241.117685,187500.0,187500.0,-82319.776096,187500.0,187500.0,187500.0,-41674.380502,-51349.668366,187500.0,187500.0
1680229553.398461,5,-84715.123143,-59562.593348,-76481.969831,-54432.867996,-187500.022352,-53285.64236,187500.0,187500.0,-82296.306765,187500.0,187500.0,187500.0,-41436.379127,-51730.363277,187500.0,187500.0
1680229553.39848,5,-84669.100901,-58165.966948,-76483.802674,-54114.221527,-187500.022352,-53247.510284,187500.0,187500.0,-82354.823632,187500.0,187500.0,187500.0,-41484.055398,-51785.192106,187500.0,187500.0
1680229553.398499,5,-84662.462433,-58289.370929,-76435.411148,-53894.079196,-187500.022352,-53267.783316,187500.0,187500.0,-82274.603221,187500.0,187500.0,187500.0,-41662.735243,-51292.090272,187500.0,187500.0
1680229553.398519,5,-84709.95989,-59440.061085,-76494.50916,-54563.066907,-187500.022352,-53285.105918,187500.0,187500.0,-82323.933521,187500.0,187500.0,187500.0,-41281.436835,-52053.077764,187500.0,187500.0
1680229553.398539,5,-84637.674348,-57401.17966,-76445.514136,-53714.482929,-187500.022352,-53223.839787,187500.0,187500.0,-82323.486486,187500.0,187500.0,187500.0,-41678.06854,-51365.962787,187500.0,187500.0
1680229553.398584,5,-84698.42639,-59525.84708,-76465.854223,-54440.601699,-187500.022352,-53289.710377,187500.0,187500.0,-82286.449645,187500.0,187500.0,187500.0,-41466.106947,-51723.076609,187500.0,187500.0
1680229553.398602,5,-84667.782148,-58180.741451,-76480.025229,-54138.182597,-187500.022352,-53265.369328,187500.0,187500.0,-82345.994693,187500.0,187500.0,187500.0,-41442.637616,-51824.464121,187500.0,187500.0
1680229553.398622,5,-84644.424575,-58226.428417,-76417.932083,-53882.143364,-187500.022352,-53253.187627,187500.0,187500.0,-82274.223241,187500.0,187500.0,187500.0,-41667.093833,-51295.711255,187500.0,187500.0
1680229553.398641,5,-84699.834549,-59431.679181,-76485.993145,-54550.259358,-187500.022352,-53290.179764,187500.0,187500.0,-82315.238692,187500.0,187500.0,187500.0,-41287.717675,-52026.993278,187500.0,187500.0
1680229553.398661,5,-84615.702583,-57370.825991,-76426.112822,-53682.430527,-187500.022352,-53201.577449,187500.0,187500.0,-82291.411733,187500.0,187500.0,187500.0,-41649.659473,-51351.948244,187500.0,187500.0
1680229553.39868,5,-84696.571195,-59509.172679,-76459.52868,-54403.386045,-187500.022352,-53285.955284,187500.0,187500.0,-82266.802462,187500.0,187500.0,187500.0,-41430.65708,-51701.95421,187500.0,187500.0
1680229553.398704,5,-84662.462433,-58214.827861,-76474.973735,-54135.187463,-187500.022352,-53256.04865,187500.0,187500.0,-82328.247407,187500.0,187500.0,187500.0,-41428.578368,-51822.765389,187500.0,187500.0
1680229553.398723,5,-84653.365273,-58204.479003,-76426.023415,-53873.269722,-187500.022352,-53244.89513,187500.0,187500.0,-82259.873421,187500.0,187500.0,187500.0,-41674.536964,-51280.668531,187500.0,187500.0
1680229553.398742,5,-84707.188273,-59469.096001,-76485.188482,-54569.660672,-187500.022352,-53303.411997,187500.0,187500.0,-82307.706154,187500.0,187500.0,187500.0,-41297.843015,-52052.429563,187500.0,187500.0
1680229553.398763,5,-84639.909523,-57385.466383,-76440.194421,-53705.072845,-187500.022352,-53253.813476,187500.0,187500.0,-82302.073515,187500.0,187500.0,187500.0,-41650.084156,-51391.846107,187500.0,187500.0
1680229553.398809,5,-84708.596433,-59505.395234,-76461.294468,-54427.056542,-187500.022352,-53304.35077,187500.0,187500.0,-82276.570174,187500.0,187500.0,187500.0,-41437.474363,-51708.10094,187500.0,187500.0
1680229553.39883,5,-84664.317627,-58238.945393,-76465.451892,-54170.413812,-187500.022352,-53237.183778,187500.0,187500.0,-82331.957797,187500.0,187500.0,187500.0,-41434.926264,-51821.044304,187500.0,187500.0
1680229553.398849,5,-84675.068817,-58162.234206,-76435.232334,-53867.502972,-187500.022352,-53273.795935,187500.0,187500.0,-82275.966677,187500.0,187500.0,187500.0,-41716.245319,-51269.805583,187500.0,187500.0
1680229553.398869,5,-84704.416657,-59477.030871,-76480.829892,-54587.430309,-187500.022352,-53292.996084,187500.0,187500.0,-82308.376707,187500.0,187500.0,187500.0,-41286.220108,-52040.940766,187500.0,187500.0
1680229553.398889,5,-84644.134002,-57360.924168,-76442.340188,-53714.974667,-187500.022352,-53227.706638,187500.0,187500.0,-82296.910262,187500.0,187500.0,187500.0,-41665.193935,-51383.598314,187500.0,187500.0
1680229553.464172,5,-84730.970529,-59478.014347,-76481.835721,-54410.382141,-187500.022352,-53309.670485,187500.0,187500.0,-82279.453549,187500.0,187500.0,187500.0,-41444.783383,-51701.864803,187500.0,187500.0
