Timestamp,Label,EXG Channel 0 (Fp1),EXG Channel 1 (Fp2),EXG Channel 2 (C3),EXG Channel 3 (C4),EXG Channel 4 (P7),EXG Channel 5 (P8),EXG Channel 6 (O1),EXG Channel 7 (O2),EXG Channel 8 (F7),EXG Channel 9 (F8),EXG Channel 10 (F3),EXG Channel 11 (F4),EXG Channel 12 (T7),EXG Channel 13 (T8),EXG Channel 14 (P3),EXG Channel 15 (P4)
1679630790.080583,0,187500.0,-157019.239011,-82167.113682,-93242.268949,-92738.393574,-68395.39926,-187500.022352,-187500.022352,187500.0,-66169.925472,187500.0,187500.0,-78460.41214,-75757.102759,-80696.03362,-135443.055385
1679630790.080618,0,187500.0,-156865.660175,-82136.715309,-93207.824911,-92705.335344,-68361.893995,-187500.022352,-187500.022352,187500.0,-66161.521216,187500.0,187500.0,-78445.235305,-75735.332159,-80754.908115,-135486.328362
1679630790.080636,0,187500.0,-156272.176656,-82140.380995,-93231.830684,-92718.344059,-68378.635452,-187500.022352,-187500.022352,187500.0,-66144.086855,187500.0,187500.0,-78420.626035,-75717.093136,-80726.946083,-135526.449743
1679630790.080653,0,187500.0,-155997.65253,-82154.507298,-93226.175693,-92713.583137,-68369.627699,-187500.022352,-187500.022352,187500.0,-66169.590195,187500.0,187500.0,-78452.052588,-75750.419587,-80704.974318,-135463.171955
1679630790.080674,0,187500.0,-155640.896337,-82143.040853,-93231.227187,-92718.2323,-68377.093181,-187500.022352,-187500.022352,187500.0,-66144.53389,187500.0,187500.0,-78425.05168,-75723.351624,-80758.372636,-135559.530325
1679630790.080705,0,187500.0,-155145.134645,-82153.188545,-93231.785981,-92712.353791,-68376.467332,-187500.022352,-187500.022352,187500.0,-66156.313259,187500.0,187500.0,-78445.92821,-75750.531346,-80705.89074,-135504.63444
1679630790.080724,0,187500.0,-155003.022254,-82150.014597,-93227.136818,-92709.381009,-68371.147617,-187500.022352,-187500.022352,187500.0,-66163.935204,187500.0,187500.0,-78436.115794,-75711.460496,-80753.231734,-135573.008427
1679630790.080744,0,187500.0,-154418.904116,-82162.017484,-93249.890894,-92734.817294,-68407.670368,-187500.022352,-187500.022352,187500.0,-66167.064448,187500.0,187500.0,-78438.7533,-75710.052336,-80729.136554,-135561.698444
1679630790.080763,0,187500.0,-154182.288549,-82152.138013,-93218.799617,-92709.626878,-68391.800629,-187500.022352,-187500.022352,187500.0,-66159.91189,187500.0,187500.0,-78439.26739,-75746.99977,-80713.691498,-135522.091153
1679630790.080783,0,187500.0,-153821.710208,-82138.39169,-93221.168902,-92714.074876,-68398.394394,-187500.022352,-187500.022352,187500.0,-66161.431809,187500.0,187500.0,-78411.797096,-75717.026081,-80754.617543,-135638.767259
1679630790.080802,0,187500.0,-153273.958358,-82150.238115,-93223.538187,-92727.061239,-68398.774373,-187500.022352,-187500.022352,187500.0,-66182.800076,187500.0,187500.0,-78440.586143,-75751.470119,-80683.807216,-135570.683845
1679630790.081092,0,187500.0,-153108.667208,-82145.43249,-93216.028001,-92723.015573,-68387.754963,-187500.022352,-187500.022352,187500.0,-66169.858416,187500.0,187500.0,-78424.470535,-75723.709252,-80736.065595,-135629.647747
1679630790.081113,0,187500.0,-152520.615163,-82147.935885,-93231.964795,-92734.906701,-68406.061042,-187500.022352,-187500.022352,187500.0,-66167.779704,187500.0,187500.0,-78428.471497,-75734.259276,-80710.562254,-135634.654538
1679630790.081133,0,187500.0,-152249.980241,-82145.030158,-93209.61305,-92714.432504,-68385.586844,-187500.022352,-187500.022352,187500.0,-66173.099419,187500.0,187500.0,-78439.692073,-75719.350662,-80692.412638,-135589.638125
1679630790.081154,0,187500.0,-151890.273618,-82135.485963,-93219.872501,-92714.298393,-68398.081469,-187500.022352,-187500.022352,187500.0,-66159.844835,187500.0,187500.0,-78416.781535,-75705.246711,-80732.511667,-135667.668065
1679630790.081174,0,187500.0,-151343.102913,-82151.690978,-93228.053239,-92724.423733,-68401.590693,-187500.022352,-187500.022352,187500.0,-66178.48619,187500.0,187500.0,-78437.076919,-75742.350607,-80671.670219,-135595.941317
1679630790.081198,0,187500.0,-151211.048807,-82132.24496,-93209.47894,-92694.897079,-68380.848274,-187500.022352,-187500.022352,187500.0,-66147.171396,187500.0,187500.0,-78415.239264,-75708.443011,-80720.799353,-135649.518448
1679630790.081215,0,187500.0,-150630.730466,-82143.577295,-93232.456533,-92722.635594,-68416.320493,-187500.022352,-187500.022352,187500.0,-66173.345288,187500.0,187500.0,-78423.934093,-75731.554715,-80695.273661,-135664.807041
1679630790.081234,0,187500.0,-150392.639684,-82150.282818,-93225.326327,-92708.464588,-68413.705339,-187500.022352,-187500.022352,187500.0,-66180.117867,187500.0,187500.0,-78434.394709,-75741.09891,-80674.039504,-135612.503959
1679630790.081252,0,187500.0,-150081.346939,-82143.532591,-93234.356431,-92712.174977,-68424.545935,-187500.022352,-187500.022352,187500.0,-66156.536777,187500.0,187500.0,-78413.696994,-75709.381784,-80724.420336,-135711.29867
1679630790.08127,0,187500.0,-149558.606691,-82169.415911,-93243.05126,-92726.725963,-68436.593525,-187500.022352,-187500.022352,187500.0,-66187.471591,187500.0,187500.0,-78440.161459,-75743.445843,-80662.707169,-135631.100611
1679630790.081289,0,187500.0,-149423.468044,-82152.786213,-93227.315632,-92708.62105,-68412.721862,-187500.022352,-187500.022352,187500.0,-66191.763126,187500.0,187500.0,-78437.009863,-75756.946296,-80711.1434,-135649.652559
1679630790.081392,0,187500.0,-148853.051526,-82145.790117,-93227.896777,-92713.806655,-68417.147507,-187500.022352,-187500.022352,187500.0,-66169.00905,187500.0,187500.0,-78427.376262,-75731.800584,-80694.714867,-135657.855649
1679630790.081411,0,187500.0,-148593.436014,-82154.172022,-93213.949289,-92701.781416,-68406.731594,-187500.022352,-187500.022352,187500.0,-66173.837027,187500.0,187500.0,-78433.031253,-75736.829726,-80665.344675,-135596.433055
1679630790.081429,0,187500.0,-148269.872161,-82149.4111,-93229.371992,-92706.542338,-68417.974522,-187500.022352,-187500.022352,187500.0,-66170.618376,187500.0,187500.0,-78419.642558,-75727.196124,-80716.373708,-135684.565983
1679630790.081447,0,187500.0,-147719.79573,-82163.090368,-93233.998803,-92717.695858,-68424.702397,-187500.022352,-187500.022352,187500.0,-66199.943864,187500.0,187500.0,-78442.664855,-75742.864697,-80658.460338,-135596.656572
1679630790.081464,0,187500.0,-147543.440466,-82150.327522,-93218.777265,-92705.603564,-68418.376853,-187500.022352,-187500.022352,187500.0,-66178.128562,187500.0,187500.0,-78428.471497,-75742.395311,-80707.164789,-135620.885863
1679630790.081481,0,187500.0,-146912.540127,-82152.965027,-93233.998803,-92715.818312,-68436.861746,-187500.022352,-187500.022352,187500.0,-66185.102306,187500.0,187500.0,-78431.7125,-75748.564392,-80686.109446,-135605.217291
1679630790.081499,0,187500.0,-146580.214391,-82171.561679,-93237.329213,-92719.282832,-68423.741272,-187500.022352,-187500.022352,187500.0,-66188.343309,187500.0,187500.0,-78434.774689,-75763.495357,-80668.965658,-135534.541075
1679630790.081517,0,187500.0,-146180.69931,-82161.45869,-93236.25633,-92723.261443,-68431.318513,-187500.022352,-187500.022352,187500.0,-66180.631957,187500.0,187500.0,-78439.535611,-75743.110567,-80719.882932,-135578.886936
1679630790.081536,0,187500.0,-145562.919445,-82171.896955,-93240.436106,-92726.122466,-68426.222316,-187500.022352,-187500.022352,187500.0,-66190.064393,187500.0,187500.0,-78450.823242,-75759.025009,-80656.739254,-135478.929934
1679630790.081554,0,187500.0,-145340.921919,-82160.005827,-93222.532358,-92706.117655,-68419.337978,-187500.022352,-187500.022352,187500.0,-66180.095515,187500.0,187500.0,-78431.041948,-75712.846305,-80704.393173,-135498.554766
1679630790.081598,0,187500.0,-144669.319054,-82165.504356,-93247.253388,-92725.206044,-68443.053179,-187500.022352,-187500.022352,187500.0,-66185.437582,187500.0,187500.0,-78440.407329,-75747.916192,-80686.645888,-135469.095167
1679630790.081616,0,187500.0,-144273.60377,-82183.3634,-93251.544923,-92723.931995,-68432.525508,-187500.022352,-187500.022352,187500.0,-66209.510411,187500.0,187500.0,-78457.21584,-75765.149387,-80659.399111,-135352.374357
1679630790.674415,0,93749.988824,-10738.783865,-40641.416984,-46150.809068,-45620.312765,-33992.398857,-93750.011176,-93750.011176,93749.988824,-33082.772265,93749.988824,93749.988824,-39210.055972,-37865.665599,-40356.92398,-67704.886819
1679630790.674459,0,187500.0,-21478.372392,-81288.287793,-92293.549155,-91235.864608,-67974.426505,-187500.022352,-187500.022352,187500.0,-65440.342181,187500.0,187500.0,-77679.442189,-74739.494889,-79763.988228,-129092.902433
1679630790.674485,0,187500.0,-21620.529487,-81272.261592,-92280.54044,-91228.980271,-67965.798732,-187500.022352,-187500.022352,187500.0,-65417.342236,187500.0,187500.0,-77655.704636,-74706.3249,-79799.035764,-129066.147395
1679630790.674509,0,187500.0,-21471.957442,-81266.360732,-92278.61819,-91218.899634,-67957.349772,-187500.022352,-187500.022352,187500.0,-65425.254753,187500.0,187500.0,-77661.001999,-74718.685415,-79775.40997,-129019.119325
1679630790.674536,0,187500.0,-21639.237897,-81262.672694,-92261.340292,-91210.383619,-67949.906641,-187500.022352,-187500.022352,187500.0,-65404.7135,187500.0,187500.0,-77646.003979,-74703.597987,-79782.607231,-129014.738383
1679630790.674553,0,187500.0,-21625.268057,-81254.201383,-92266.414138,-91215.345706,-67951.583022,-187500.022352,-187500.022352,187500.0,-65405.719329,187500.0,187500.0,-77645.042854,-74720.853534,-79789.268051,-128991.805493
1679630790.67457,0,187500.0,-21624.351635,-81269.624087,-92270.348045,-91221.045401,-67951.985353,-187500.022352,-187500.022352,187500.0,-65407.351006,187500.0,187500.0,-77646.40631,-74714.975025,-79772.437188,-128967.240926
1679630790.674587,0,187500.0,-21803.366757,-81265.533717,-92272.382053,-91212.909366,-67956.209833,-187500.022352,-187500.022352,187500.0,-65410.122622,187500.0,187500.0,-77646.965104,-74709.588255,-79800.153351,-128952.041739
1679630790.674603,0,187500.0,-21692.144476,-81267.098339,-92277.053568,-91212.417628,-67965.239938,-187500.022352,-187500.022352,187500.0,-65401.696015,187500.0,187500.0,-77641.01954,-74682.296775,-79788.508092,-128950.052434
1679630790.674709,0,187500.0,-21861.615403,-81286.633764,-92282.686208,-91213.892843,-67955.78515,-187500.022352,-187500.022352,187500.0,-65416.76109,187500.0,187500.0,-77646.562773,-74708.671833,-79791.369115,-128947.146707
1679630790.674725,0,187500.0,-21851.646525,-81267.590078,-92271.242114,-91210.674192,-67939.088397,-187500.022352,-187500.022352,187500.0,-65421.812585,187500.0,187500.0,-77645.981627,-74702.368641,-79800.689793,-128919.654062
1679630790.67474,0,187500.0,-21824.712673,-81278.005991,-92273.186716,-91211.769427,-67946.509176,-187500.022352,-187500.022352,187500.0,-65417.588105,187500.0,187500.0,-77644.104081,-74716.651406,-79784.50713,-128904.298413
1679630790.674756,0,187500.0,-21999.033928,-81283.303354,-92283.200298,-91217.223253,-67956.254537,-187500.022352,-187500.022352,187500.0,-65412.78248,187500.0,187500.0,-77656.39754,-74710.392917,-79808.98229,-128905.237187
1679630790.674771,0,187500.0,-21828.892449,-81288.712476,-92290.598725,-91224.420515,-67961.820121,-187500.022352,-187500.022352,187500.0,-65427.489928,187500.0,187500.0,-77656.732816,-74711.085822,-79789.133941,-128854.185802
1679630790.674793,0,187500.0,-22052.633411,-81271.568688,-92261.049719,-91205.421532,-67936.249725,-187500.022352,-187500.022352,187500.0,-65415.621151,187500.0,187500.0,-77650.764901,-74681.447408,-79802.388525,-128852.263552
1679630790.67481,0,187500.0,-21991.411983,-81277.760122,-92289.883469,-91227.192131,-67967.095133,-187500.022352,-187500.022352,187500.0,-65406.523991,187500.0,187500.0,-77649.200278,-74692.712688,-79806.076563,-128854.319913
1679630790.674826,0,187500.0,-21908.799935,-81286.253784,-92289.369379,-91225.180474,-67958.914394,-187500.022352,-187500.022352,187500.0,-65431.267373,187500.0,187500.0,-77662.298401,-74722.08288,-79773.845348,-128763.102444
1679630790.674842,0,187500.0,-22214.392986,-81251.407415,-92258.568675,-91191.608154,-67937.367313,-187500.022352,-187500.022352,187500.0,-65403.618265,187500.0,187500.0,-77644.528764,-74691.528045,-79811.753906,-128784.426008
1679630790.674858,0,187500.0,-21907.168258,-81257.732959,-92276.092443,-91204.460407,-67951.04658,-187500.022352,-187500.022352,187500.0,-65395.638692,187500.0,187500.0,-77630.13424,-74686.20833,-79781.556699,-128753.893525
1679630790.674873,0,187500.0,-22156.79254,-81267.970057,-92270.839783,-91197.441959,-67944.609278,-187500.022352,-187500.022352,187500.0,-65407.060433,187500.0,187500.0,-77636.370377,-74699.239397,-79778.22629,-128676.377675
1679630790.674912,0,187500.0,-22208.223904,-81257.442386,-92272.180888,-91206.203843,-67950.420731,-187500.022352,-187500.022352,187500.0,-65392.397689,187500.0,187500.0,-77624.143973,-74664.258917,-79800.01924,-128703.915024
1679630790.674927,0,187500.0,-21969.194349,-81269.467624,-92267.241152,-91209.735419,-67945.27983,-187500.022352,-187500.022352,187500.0,-65401.494849,187500.0,187500.0,-77646.093386,-74697.428906,-79762.758882,-128587.507139
1679630790.674942,0,187500.0,-22606.129659,-81242.600828,-92237.960367,-91180.879316,-67926.325551,-187500.022352,-187500.022352,187500.0,-65374.829218,187500.0,187500.0,-77619.11483,-74667.723437,-79814.257302,-128633.596436
1679630790.674958,0,187500.0,-22140.609877,-81254.737825,-92260.736795,-91201.979363,-67953.147644,-187500.022352,-187500.022352,187500.0,-65376.706764,187500.0,187500.0,-77608.073069,-74658.782739,-79790.27388,-128630.668358
1679630790.674975,0,187500.0,-22561.001487,-81259.275229,-92249.762088,-91182.801566,-67926.482013,-187500.022352,-187500.022352,187500.0,-65391.928302,187500.0,187500.0,-77637.577371,-74677.222929,-79785.602365,-128528.654996
1679630790.67499,0,187500.0,-22727.499631,-81236.811726,-92242.251902,-91182.555697,-67911.036958,-187500.022352,-187500.022352,187500.0,-65371.431753,187500.0,187500.0,-77595.220816,-74646.779853,-79817.252435,-128635.608093
1679630790.675007,0,187500.0,-22449.019247,-81254.000217,-92248.89037,-91185.863755,-67923.084548,-187500.022352,-187500.022352,187500.0,-65371.029421,187500.0,187500.0,-77621.03708,-74654.647667,-79774.761769,-128517.456772
1679630790.675022,0,187500.0,-23196.416878,-81238.689272,-92241.111963,-91170.172831,-67908.421804,-187500.022352,-187500.022352,187500.0,-65366.424962,187500.0,187500.0,-77611.917569,-74671.746751,-79813.609101,-128568.17288
1679630790.675038,0,187500.0,-22753.584117,-81244.925409,-92252.466649,-91187.048398,-67921.542278,-187500.022352,-187500.022352,187500.0,-65380.193636,187500.0,187500.0,-77618.556037,-74665.331801,-79779.835615,-128526.285711
1679630790.675053,0,187500.0,-23202.764774,-81245.238333,-92242.408364,-91176.990113,-67913.942684,-187500.022352,-187500.022352,187500.0,-65385.021613,187500.0,187500.0,-77620.187714,-74678.273461,-79777.84631,-128411.375393
1679630790.67509,0,187500.0,-23467.252966,-81232.117859,-92247.079879,-91185.103796,-67921.69874,-187500.022352,-187500.022352,187500.0,-65369.241282,187500.0,187500.0,-77605.346156,-74649.372655,-79813.542046,-128506.079734
1679630790.675105,0,187500.0,-23215.304102,-81269.087645,-92276.04774,-91216.083314,-67944.452816,-187500.022352,-187500.022352,187500.0,-65404.534686,187500.0,187500.0,-77642.137127,-74681.380353,-79768.23506,-128326.327005
1679630790.67512,0,187500.0,-24133.960799,-81233.414261,-92238.653271,-91184.25443,-67908.824135,-187500.022352,-187500.022352,187500.0,-65396.51041,187500.0,187500.0,-77627.809659,-74664.013048,-79821.700433,-128318.436839
1679630790.675136,0,187500.0,-23901.435602,-81235.917656,-92260.714443,-91202.336991,-67920.849373,-187500.022352,-187500.022352,187500.0,-65384.194599,187500.0,187500.0,-77624.300435,-74682.564996,-79797.672307,-128293.224072
1679630790.675153,0,187500.0,-24631.823555,-81226.686385,-92239.010899,-91179.38175,-67895.05546,-187500.022352,-187500.022352,187500.0,-65375.946805,187500.0,187500.0,-77608.006013,-74660.8391,-79791.346764,-128145.456689
1679630790.675169,0,187500.0,-25244.529574,-81223.132458,-92258.814545,-91192.569279,-67908.287693,-187500.022352,-187500.022352,187500.0,-65365.687354,187500.0,187500.0,-77620.0089,-74650.154966,-79828.71888,-128201.33605
1679630790.675184,0,187500.0,-25332.126061,-81244.210153,-92275.444242,-91199.051285,-67919.374158,-187500.022352,-187500.022352,187500.0,-65420.516183,187500.0,187500.0,-77636.973874,-74664.16951,-79777.667496,-127946.280294
1679630790.6752,0,187500.0,-26619.743004,-81214.05765,-92250.209123,-91169.144651,-67894.139039,-187500.022352,-187500.022352,187500.0,-65448.433512,187500.0,187500.0,-77624.859229,-74682.766161,-79815.441944,-127836.108546
1679630790.675215,0,187500.0,-26729.646531,-81217.924502,-92275.15367,-91183.092139,-67904.39849,-187500.022352,-187500.022352,187500.0,-65479.100106,187500.0,187500.0,-77612.163438,-74700.826371,-79786.697601,-127669.856271
1679630790.675231,0,187500.0,-27692.380868,-81221.769002,-92273.521992,-91163.512011,-67888.12642,-187500.022352,-187500.022352,187500.0,-65521.479013,187500.0,187500.0,-77611.157609,-74709.27533,-79765.686961,-127346.627694
1679630790.675247,0,187500.0,-28510.611178,-81202.814722,-92268.984588,-91159.734566,-67886.181818,-187500.022352,-187500.022352,187500.0,-65542.087322,187500.0,187500.0,-77599.087667,-74699.038231,-79782.58488,-127198.167407
1679630790.675281,0,187500.0,-28677.377543,-81235.492973,-92309.441246,-91188.680075,-67915.4179,-187500.022352,-187500.022352,187500.0,-65576.53136,187500.0,187500.0,-77586.660097,-74744.188755,-79707.795943,-126744.225829
1679630790.675297,0,187500.0,-29853.57104,-81241.639703,-92317.487874,-91184.589706,-67911.260475,-187500.022352,-187500.022352,187500.0,-65634.489433,187500.0,187500.0,-77607.514275,-74782.879625,-79741.167097,-126505.755068
1679630790.675313,0,187500.0,-29776.613984,-81244.411319,-92345.047575,-91201.42057,-67929.857126,-187500.022352,-187500.022352,187500.0,-65645.687657,187500.0,187500.0,-77598.148894,-74774.922404,-79732.069937,-126325.5106
1679630790.675329,0,187500.0,-30581.410895,-81249.708682,-92340.532522,-91187.58484,-67926.459661,-187500.022352,-187500.022352,187500.0,-65696.090841,187500.0,187500.0,-77615.024461,-74806.01368,-79719.217684,-126032.970969
1679630790.675345,0,187500.0,-31398.590672,-81228.809801,-92341.873627,-91191.719912,-67927.152565,-187500.022352,-187500.022352,187500.0,-65699.644768,187500.0,187500.0,-77592.672717,-74803.286767,-79766.558679,-126033.149783
1679630790.675361,0,187500.0,-31527.046147,-81226.887551,-92341.873627,-91189.618849,-67911.104013,-187500.022352,-187500.022352,187500.0,-65719.78369,187500.0,187500.0,-77592.806827,-74818.195381,-79712.355699,-125726.997939
1679630790.675376,0,187500.0,-32598.2535,-81220.20438,-92336.53156,-91186.579011,-67910.276998,-187500.022352,-187500.022352,187500.0,-65726.466862,187500.0,187500.0,-77578.836987,-74805.186666,-79736.026196,-125524.468782
1679630790.675392,0,187500.0,-32268.498214,-81224.138287,-92359.442098,-91205.175663,-67933.053426,-187500.022352,-187500.022352,187500.0,-65743.901222,187500.0,187500.0,-77586.414228,-74835.138003,-79704.957271,-125316.955187
1679630790.675416,0,187500.0,-32336.380462,-81252.659113,-92375.73652,-91218.698468,-67947.962039,-187500.022352,-187500.022352,187500.0,-65774.187836,187500.0,187500.0,-77610.688223,-74851.164204,-79680.526815,-124937.064938
1679630790.675432,0,187500.0,-32170.105835,-81251.496822,-92393.327343,-91244.402974,-67970.51495,-187500.022352,-187500.022352,187500.0,-65789.990519,187500.0,187500.0,-77601.188731,-74874.141797,-79715.172018,-124787.263547
1679630790.675448,0,187500.0,-31336.050491,-81264.438482,-92397.730636,-91254.930646,-67985.647081,-187500.022352,-187500.022352,187500.0,-65813.258685,187500.0,187500.0,-77634.179906,-74906.484772,-79661.147852,-124336.652379
1679630790.675523,0,187500.0,-31646.382111,-81239.56099,-92373.166069,-91232.154218,-67958.288545,-187500.022352,-187500.022352,187500.0,-65801.568723,187500.0,187500.0,-77614.197447,-74883.060143,-79725.31971,-124200.127924
1679630790.675539,0,187500.0,-30492.56271,-81275.726113,-92430.028907,-91294.31442,-68003.528476,-187500.022352,-187500.022352,187500.0,-65788.537656,187500.0,187500.0,-77615.78442,-74889.251577,-79721.765783,-124097.600472
1679630790.675556,0,187500.0,-29961.686428,-81302.503503,-92429.827741,-91297.957754,-68015.75488,-187500.022352,-187500.022352,187500.0,-65843.344133,187500.0,187500.0,-77676.737628,-74952.015275,-79715.596702,-123775.310668
1679630790.675572,0,187500.0,-29662.061293,-81267.254802,-92406.11254,-91280.702207,-67983.098982,-187500.022352,-187500.022352,187500.0,-65803.490973,187500.0,187500.0,-77642.494755,-74922.8686,-79775.722894,-123784.407828
1679630790.675588,0,187500.0,-28724.49502,-81295.865035,-92434.722773,-91307.926632,-67999.21459,-187500.022352,-187500.022352,187500.0,-65821.886459,187500.0,187500.0,-77655.190546,-74943.767481,-79726.169077,-123573.496768
1679630790.675603,0,187500.0,-28904.627729,-81271.903965,-92398.580003,-91268.162879,-67974.337098,-187500.022352,-187500.022352,187500.0,-65811.850525,187500.0,187500.0,-77649.647313,-74926.422528,-79777.84631,-123600.162399
1679630790.675618,0,187500.0,-27748.148471,-81288.779532,-92422.675183,-91308.463074,-68002.477944,-187500.022352,-187500.022352,187500.0,-65798.975921,187500.0,187500.0,-77646.451014,-74925.751975,-79751.873583,-123559.146948
1679630790.675634,0,187500.0,-27177.307269,-81305.319822,-92419.344773,-91301.578736,-68002.947331,-187500.022352,-187500.022352,187500.0,-65823.518136,187500.0,187500.0,-77675.910613,-74940.973513,-79732.561676,-123290.546035
1679630790.712112,0,187500.0,-26614.177419,-81294.434523,-92422.406962,-91304.462112,-68009.764613,-187500.022352,-187500.022352,187500.0,-65808.45306,187500.0,187500.0,-77647.792119,-74934.491507,-79790.318583,-123345.754843
1679630790.712148,0,187500.0,-25285.679136,-81327.537456,-92454.79464,-91325.875083,-68033.390407,-187500.022352,-187500.022352,187500.0,-65843.232375,187500.0,187500.0,-77690.908634,-74973.115322,-79735.780327,-123104.937149
1679630790.712287,0,187500.0,-25222.602513,-81313.008823,-92434.588663,-91316.017963,-68000.779212,-187500.022352,-187500.022352,187500.0,-65837.979715,187500.0,187500.0,-77684.96307,-74955.233926,-79791.212653,-122997.894644
1679630790.712304,0,187500.0,-23841.309409,-81332.32073,-92459.287341,-91357.279284,-68042.152291,-187500.022352,-187500.022352,187500.0,-65828.927258,187500.0,187500.0,-77696.608328,-74950.741226,-79775.655839,-122798.450029
1679630790.927131,0,187500.0,-23087.966214,-81342.96016,-92449.474925,-91342.303615,-68034.440939,-187500.022352,-187500.022352,187500.0,-65847.903889,187500.0,187500.0,-77712.545122,-74979.642031,-79757.372112,-122337.445299
1679630790.927169,0,187500.0,-22646.720427,-81330.823163,-92455.889875,-91345.499914,-68039.827709,-187500.022352,-187500.022352,187500.0,-65837.66679,187500.0,187500.0,-77697.949433,-74971.818921,-79817.386546,-122194.438838
1679630790.927186,0,187500.0,-21891.767906,-81351.342064,-92460.606093,-91350.998443,-68046.041494,-187500.022352,-187500.022352,187500.0,-65842.762988,187500.0,187500.0,-77708.722974,-74966.029819,-79781.377886,-121799.796438
1679630790.927203,0,187500.0,-22973.324117,-81336.16523,-92427.458456,-91318.476655,-68014.950218,-187500.022352,-187500.022352,187500.0,-65851.614279,187500.0,187500.0,-77709.929968,-74980.826674,-79851.808232,-121627.710358
1679630790.927222,0,187500.0,-23337.031703,-81327.939788,-92424.03864,-91325.360993,-68009.317578,-187500.022352,-187500.022352,187500.0,-65825.708607,187500.0,187500.0,-77680.135093,-74952.104682,-79871.813044,-121522.590103
1679630790.92724,0,187500.0,-24444.42653,-81317.322709,-92385.548936,-91293.129777,-67955.65104,-187500.022352,-187500.022352,187500.0,-65827.340284,187500.0,187500.0,-77674.189529,-74942.828708,-79850.735349,-121197.618091
1679630790.927257,0,187500.0,-25773.01422,-81286.432598,-92365.320607,-91287.832414,-67940.250688,-187500.022352,-187500.022352,187500.0,-65789.632891,187500.0,187500.0,-77643.210011,-74904.115487,-79887.347506,-121154.479224
1679630790.927275,0,187500.0,-26312.04889,-81299.463665,-92376.89881,-91293.442702,-67956.254537,-187500.022352,-187500.022352,187500.0,-65785.162542,187500.0,187500.0,-77654.318828,-74902.081478,-79805.853046,-120789.139961
1679630790.927291,0,187500.0,-28027.299407,-81267.813595,-92337.962072,-91259.758623,-67918.815365,-187500.022352,-187500.022352,187500.0,-65773.450228,187500.0,187500.0,-77616.119697,-74898.080516,-79842.867535,-120614.058747
1679630790.927436,0,187500.0,-28413.604607,-81259.007008,-92350.613159,-91273.549649,-67927.241972,-187500.022352,-187500.022352,187500.0,-65753.691286,187500.0,187500.0,-77630.00013,-74880.467341,-79835.871438,-120492.621719
1679630790.927453,0,187500.0,-29291.938757,-81244.523078,-92309.75417,-91237.451582,-67889.132248,-187500.022352,-187500.022352,187500.0,-65744.080036,187500.0,187500.0,-77619.897141,-74859.05437,-79817.855932,-120154.104549
1679630790.927469,0,187500.0,-30342.962485,-81221.567836,-92303.272164,-91225.493398,-67877.352879,-187500.022352,-187500.022352,187500.0,-65708.317245,187500.0,187500.0,-77590.348135,-74842.827003,-79882.720695,-120154.23866
1679630790.927486,0,187500.0,-30556.10872,-81226.10524,-92310.335316,-91226.834503,-67883.231388,-187500.022352,-187500.022352,187500.0,-65703.51162,187500.0,187500.0,-77590.549301,-74830.712358,-79819.733479,-119848.26563
1679630790.927505,0,187500.0,-32159.868736,-81204.334641,-92285.346065,-91203.164006,-67867.048725,-187500.022352,-187500.022352,187500.0,-65701.008225,187500.0,187500.0,-77576.802978,-74833.729843,-79857.887907,-119672.916195
1679630790.927533,0,187500.0,-32613.407983,-81201.272452,-92298.868871,-91222.05123,-67880.593882,-187500.022352,-187500.022352,187500.0,-65679.327032,187500.0,187500.0,-77556.753463,-74804.337299,-79847.315532,-119531.094376
1679630790.927553,0,187500.0,-33339.794974,-81215.398755,-92290.53167,-91214.295174,-67868.613347,-187500.022352,-187500.022352,187500.0,-65693.676852,187500.0,187500.0,-77585.363696,-74831.718186,-79814.078488,-119100.912702
1679630790.927573,0,187500.0,-34148.279923,-81191.50474,-92280.92042,-91196.749055,-67859.136207,-187500.022352,-187500.022352,187500.0,-65668.844064,187500.0,187500.0,-77542.917734,-74805.745459,-79868.415578,-118982.739029
1679630790.927592,0,187500.0,-33866.312667,-81225.72526,-92306.736685,-91221.917119,-67890.406297,-187500.022352,-187500.022352,187500.0,-65694.526219,187500.0,187500.0,-77573.651382,-74834.646265,-79786.831711,-118550.925678
1679630790.927611,0,187500.0,-34742.657512,-81230.709699,-92303.98742,-91215.859797,-67878.78339,-187500.022352,-187500.022352,187500.0,-65719.649579,187500.0,187500.0,-77586.503635,-74836.032073,-79817.811229,-118265.136274
1679630790.927631,0,187500.0,-34423.429897,-81234.733013,-92322.494664,-91237.94332,-67891.747402,-187500.022352,-187500.022352,187500.0,-65706.46205,187500.0,187500.0,-77586.905967,-74837.082605,-79797.135865,-118042.356437
1679630790.927679,0,187500.0,-34481.946764,-81250.111014,-92317.756095,-91233.271805,-67891.657995,-187500.022352,-187500.022352,187500.0,-65737.016885,187500.0,187500.0,-77616.790249,-74884.647117,-79738.104908,-117576.702544
1679630790.927698,0,187500.0,-34878.042028,-81224.875894,-92300.209975,-91220.173683,-67877.643451,-187500.022352,-187500.022352,187500.0,-65711.267675,187500.0,187500.0,-77591.935109,-74846.425634,-79787.748133,-117471.738752
1679630790.927718,0,187500.0,-34243.453651,-81267.210098,-92341.292482,-91262.463184,-67922.279885,-187500.022352,-187500.022352,187500.0,-65716.274466,187500.0,187500.0,-77606.575502,-74853.466434,-79727.018443,-117154.209871
1679630790.927738,0,187500.0,-34874.73397,-81270.920488,-92335.793952,-91251.756698,-67902.073908,-187500.022352,-187500.022352,187500.0,-65734.51349,187500.0,187500.0,-77629.150764,-74903.51199,-79769.486757,-116947.769159
1679630790.927758,0,187500.0,-34422.8264,-81254.179031,-92343.259435,-91254.908294,-67905.158449,-187500.022352,-187500.022352,187500.0,-65742.85069,187500.0,187500.0,-77619.047775,-74880.668507,-79768.637391,-116871.54971
1679630790.927779,0,187500.0,-34378.949926,-81261.532755,-92339.99608,-91243.33009,-67907.795955,-187500.022352,-187500.022352,187500.0,-65761.246176,187500.0,187500.0,-77625.239208,-74894.571292,-79737.009673,-116578.428933
1679630790.927799,0,187500.0,-34745.563238,-81245.908886,-92343.32649,-91242.033689,-67922.548106,-187500.022352,-187500.022352,187500.0,-65756.954641,187500.0,187500.0,-77606.888426,-74894.392478,-79807.283557,-116641.773777
1679630791.250565,0,187500.0,-34126.151696,-81256.21304,-92352.28954,-91243.531256,-67924.425653,-187500.022352,-187500.022352,187500.0,-65761.894377,187500.0,187500.0,-77610.285891,-74906.015385,-79758.534403,-116477.533159
1679630791.250614,0,187500.0,-34836.087803,-81234.375386,-92321.846464,-91208.327259,-67885.3101,-187500.022352,-187500.022352,187500.0,-65743.409484,187500.0,187500.0,-77597.098362,-74910.910417,-79812.245645,-116450.442845
1679630791.250639,0,187500.0,-34497.213006,-81241.058557,-92352.513057,-91235.395221,-67907.572437,-187500.022352,-187500.022352,187500.0,-65734.021751,187500.0,187500.0,-77584.447275,-74890.726792,-79815.441944,-116530.864421
1679630791.250751,0,187500.0,-34529.488925,-81250.468642,-92329.401354,-91221.559491,-67890.294539,-187500.022352,-187500.022352,187500.0,-65762.363763,187500.0,187500.0,-77613.86217,-74934.4021,-79787.412857,-116368.903681
1679630791.250772,0,187500.0,-34943.711453,-81221.992519,-92309.463597,-91209.534253,-67877.352879,-187500.022352,-187500.022352,187500.0,-65727.942077,187500.0,187500.0,-77575.081894,-74867.480977,-79869.600221,-116582.072268
1679630791.250792,0,187500.0,-34197.453761,-81244.612485,-92328.395525,-91225.89573,-67900.218713,-187500.022352,-187500.022352,187500.0,-65734.312324,187500.0,187500.0,-77586.503635,-74889.922129,-79810.144581,-116542.666142
1679630791.250815,0,187500.0,-34689.505063,-81227.021662,-92302.422798,-91193.642163,-67862.667783,-187500.022352,-187500.022352,187500.0,-65732.166556,187500.0,187500.0,-77584.693144,-74874.141797,-79861.665352,-116629.614428
1679630791.250839,0,187500.0,-34106.839789,-81242.332607,-92336.844484,-91233.875303,-67892.932045,-187500.022352,-187500.022352,187500.0,-65725.595144,187500.0,187500.0,-77572.287926,-74863.144739,-79875.970468,-116840.592544
1679630791.250859,0,187500.0,-33770.870718,-81258.64938,-92334.184627,-91219.927814,-67885.488914,-187500.022352,-187500.022352,187500.0,-65757.982821,187500.0,187500.0,-77598.081839,-74899.242806,-79863.18527,-116814.306893
1679630791.25088,0,187500.0,-33802.118457,-81226.753441,-92319.991269,-91208.796645,-67873.307213,-187500.022352,-187500.022352,187500.0,-65726.019827,187500.0,187500.0,-77571.237394,-74871.61605,-79944.880896,-117167.01742
1679630791.2509,0,187500.0,-32661.665399,-81234.621255,-92325.556853,-91213.98225,-67882.717297,-187500.022352,-187500.022352,187500.0,-65715.805079,187500.0,187500.0,-77584.581385,-74888.022231,-79898.836303,-117293.505942
1679630791.25092,0,187500.0,-32775.547537,-81213.141228,-92294.175004,-91181.661627,-67852.833015,-187500.022352,-187500.022352,187500.0,-65700.583541,187500.0,187500.0,-77565.336533,-74853.779358,-79952.949876,-117582.916329
1679630791.25094,0,187500.0,-31904.231835,-81213.096525,-92313.553967,-91204.683924,-67877.196417,-187500.022352,-187500.022352,187500.0,-65682.076297,187500.0,187500.0,-77552.394873,-74861.691876,-79983.728228,-118052.347666
1679630791.25096,0,187500.0,-31337.235133,-81221.523133,-92299.785292,-91193.150424,-67855.023486,-187500.022352,-187500.022352,187500.0,-65688.558303,187500.0,187500.0,-77565.627106,-74850.337189,-79972.686466,-118326.402405
1679630791.251008,0,187500.0,-31324.829915,-81181.446455,-92273.209068,-91163.534363,-67824.043968,-187500.022352,-187500.022352,187500.0,-65663.613756,187500.0,187500.0,-77535.787527,-74829.773585,-80064.887412,-119003.369689
1679630791.251028,0,187500.0,-30186.612032,-81203.664089,-92296.477234,-91186.17668,-67839.734893,-187500.022352,-187500.022352,187500.0,-65656.505901,187500.0,187500.0,-77540.660207,-74820.095279,-80024.095479,-119530.624989
1679630791.251048,0,187500.0,-30390.325831,-81194.45517,-92276.137146,-91164.875467,-67818.724253,-187500.022352,-187500.022352,187500.0,-65664.664288,187500.0,187500.0,-77535.653417,-74828.655997,-80076.26445,-120172.544738
1679630791.25107,0,187500.0,-29720.198181,-81171.097597,-92271.44328,-91158.438165,-67816.958465,-187500.022352,-187500.022352,187500.0,-65644.592422,187500.0,187500.0,-77520.096602,-74833.036939,-80105.500532,-121045.290952
1679630791.251089,0,187500.0,-29365.207775,-81173.466882,-92253.852457,-91139.595644,-67800.306416,-187500.022352,-187500.022352,187500.0,-65634.511785,187500.0,187500.0,-77520.409527,-74808.025337,-80081.606517,-121770.98504
1679630791.251111,0,187500.0,-29659.222622,-81121.856704,-92215.519216,-91104.928089,-67764.565976,-187500.022352,-187500.022352,187500.0,-65605.208648,187500.0,187500.0,-77467.480596,-74751.028389,-80164.307972,-122909.627606
1679630791.251129,0,187500.0,-28841.08172,-81131.020919,-92229.489056,-91117.445066,-67777.909968,-187500.022352,-187500.022352,187500.0,-65615.937485,187500.0,187500.0,-77477.78475,-74786.567663,-80107.288671,-123863.622411
1679630791.251146,0,187500.0,-29457.1405,-81083.970497,-92168.513497,-91052.960283,-67714.38631,-187500.022352,-187500.022352,187500.0,-65586.835514,187500.0,187500.0,-77448.638075,-74745.418101,-80131.830887,-124905.57133
1679630791.251163,0,187500.0,-29241.177945,-81078.784892,-92192.496919,-91073.032149,-67728.87024,-187500.022352,-187500.022352,187500.0,-65543.003743,187500.0,187500.0,-77410.908331,-74709.722365,-80105.075849,-126007.892312
1679630791.25118,0,187500.0,-29344.621819,-81100.846064,-92190.909945,-91065.499612,-67729.049054,-187500.022352,-187500.022352,187500.0,-65581.247578,187500.0,187500.0,-77449.018055,-74763.277145,-80011.332632,-126672.476729
1679630791.251196,0,187500.0,-30101.809514,-81067.944296,-92167.574724,-91039.057498,-67705.825592,-187500.022352,-187500.022352,187500.0,-65551.251537,187500.0,187500.0,-77415.825715,-74711.778726,-80051.386959,-127600.007069
1679630791.251235,0,187500.0,-29588.613461,-81098.432076,-92199.738884,-91077.368388,-67741.521328,-187500.022352,-187500.022352,187500.0,-65567.791828,187500.0,187500.0,-77424.565247,-74742.892354,-79950.848812,-128188.26028
1679630791.251252,0,187500.0,-30430.603675,-81071.878203,-92164.087852,-91036.844675,-67697.890723,-187500.022352,-187500.022352,187500.0,-65566.070743,187500.0,187500.0,-77429.572037,-74737.416176,-79947.831326,-128767.952772
1679630791.251269,0,187500.0,-30465.360637,-81069.151291,-92186.081968,-91046.791201,-67713.916923,-187500.022352,-187500.022352,187500.0,-65537.639324,187500.0,187500.0,-77399.330127,-74698.345327,-79931.73807,-129469.462272
1679630791.251285,0,187500.0,-30847.843688,-81088.709067,-92178.772948,-91039.303367,-67706.652606,-187500.022352,-187500.022352,187500.0,-65575.167903,187500.0,187500.0,-77440.434985,-74733.504621,-79855.004532,-129790.768598
1679630791.251301,0,187500.0,-32136.779384,-81059.137709,-92157.002349,-91017.55512,-67680.165789,-187500.022352,-187500.022352,187500.0,-65538.131063,187500.0,187500.0,-77397.676098,-74698.479438,-79909.676899,-130361.296876
1679630791.251318,0,187500.0,-32166.641315,-81085.110436,-92183.846794,-91043.863123,-67703.948045,-187500.022352,-187500.022352,187500.0,-65548.457569,187500.0,187500.0,-77417.792668,-74718.193676,-79840.699415,-130655.177612
1679630791.251341,0,187500.0,-33655.423958,-81064.703293,-92150.453287,-91003.607631,-67656.808216,-187500.022352,-187500.022352,187500.0,-65547.697609,187500.0,187500.0,-77412.450601,-74723.558095,-79864.59343,-130962.759967
1679630791.251367,0,187500.0,-34181.338153,-81064.815052,-92171.329817,-91034.229521,-67679.517589,-187500.022352,-187500.022352,187500.0,-65531.090263,187500.0,187500.0,-77399.821866,-74698.278272,-79867.946192,-131404.877473
1679630791.251384,0,187500.0,-34651.864726,-81087.032686,-92179.219983,-91041.538542,-67683.25033,-187500.022352,-187500.022352,187500.0,-65565.042563,187500.0,187500.0,-77423.134735,-74714.550342,-79797.024107,-131459.639246
1679630791.2514,0,187500.0,-35977.546689,-81069.441863,-92162.210305,-91033.603672,-67669.325193,-187500.022352,-187500.022352,187500.0,-65546.982354,187500.0,187500.0,-77415.110459,-74705.475534,-79871.477767,-131805.353678
1679630791.251441,0,187500.0,-36280.055199,-81071.162948,-92167.977055,-91032.195512,-67674.086115,-187500.022352,-187500.022352,187500.0,-65549.441045,187500.0,187500.0,-77410.573055,-74709.767069,-79818.705299,-131925.986043
1679630791.251458,0,187500.0,-37996.870339,-81046.643084,-92134.695308,-90996.745646,-67634.903507,-187500.022352,-187500.022352,187500.0,-65532.163147,187500.0,187500.0,-77383.147464,-74695.663118,-79853.641075,-132098.16153
1679630791.251474,0,187500.0,-38892.057704,-81044.385558,-92151.548523,-91018.672707,-67659.646888,-187500.022352,-187500.022352,187500.0,-65525.7929,187500.0,187500.0,-77385.78497,-74664.974173,-79873.712942,-132427.089802
1679630791.251491,0,187500.0,-39942.232065,-81054.242677,-92145.267683,-91002.557099,-67648.91805,-187500.022352,-187500.022352,187500.0,-65536.320571,187500.0,187500.0,-77397.743153,-74703.821505,-79825.232008,-132473.112044
1679630791.251507,0,187500.0,-41744.609683,-81021.787944,-92118.19972,-90969.63298,-67627.326265,-187500.022352,-187500.022352,187500.0,-65518.148603,187500.0,187500.0,-77366.875394,-74665.287097,-79885.626422,-132822.961548
1679630791.528821,0,187500.0,-42263.840707,-81027.867619,-92128.861502,-90982.06055,-67634.076492,-187500.022352,-187500.022352,187500.0,-65514.617028,187500.0,187500.0,-77359.096987,-74668.192824,-79817.922988,-132991.828977
1679630791.528888,0,187500.0,-44136.872189,-81027.37588,-92119.362011,-90970.14707,-67612.887038,-187500.022352,-187500.022352,187500.0,-65514.885249,187500.0,187500.0,-77351.31858,-74663.968344,-79830.596427,-133159.467061
1679630791.528919,0,187500.0,-45280.499194,-81026.146534,-92132.92952,-90987.424968,-67626.253382,-187500.022352,-187500.022352,187500.0,-65514.371158,187500.0,187500.0,-77360.41574,-74675.792417,-79842.129927,-133479.924021
1679630791.528948,0,187500.0,-46592.568945,-81016.445877,-92097.926688,-90951.95275,-67597.553742,-187500.022352,-187500.022352,187500.0,-65502.368272,187500.0,187500.0,-77353.352589,-74654.468853,-79795.66065,-133572.437891
1679630791.528979,0,187500.0,-48642.402726,-80989.243804,-92081.81108,-90935.099534,-67581.572244,-187500.022352,-187500.022352,187500.0,-65478.965995,187500.0,187500.0,-77319.087365,-74618.124916,-79868.102654,-133999.043286
1679630791.52901,0,187500.0,-49055.41826,-81004.510046,-92099.468958,-90955.529029,-67595.631492,-187500.022352,-187500.022352,187500.0,-65468.728896,187500.0,187500.0,-77329.458574,-74613.028719,-79804.266072,-134201.036
1679630791.52919,0,187500.0,-50540.222292,-80995.368182,-92075.798461,-90929.511598,-67581.706355,-187500.022352,-187500.022352,187500.0,-65482.385812,187500.0,187500.0,-77335.94058,-74620.762422,-79811.329223,-134382.9792
1679630791.529225,0,187500.0,-50985.044358,-80997.022211,-92097.367894,-90953.897351,-67610.785974,-187500.022352,-187500.022352,187500.0,-65461.196358,187500.0,187500.0,-77317.209818,-74608.468963,-79816.29131,-134719.529417
1679630791.529257,0,187500.0,-51147.452134,-81026.86179,-92115.361049,-90965.252038,-67620.486631,-187500.022352,-187500.022352,187500.0,-65499.820173,187500.0,187500.0,-77349.083406,-74663.566013,-79742.910533,-134696.820044
1679630791.52929,0,187500.0,-52055.603511,-81019.463363,-92119.741991,-90968.157764,-67625.448719,-187500.022352,-187500.022352,187500.0,-65502.167106,187500.0,187500.0,-77353.24083,-74653.239507,-79806.724764,-134951.093489
1679630791.529323,0,187500.0,-51474.994597,-81054.510898,-92164.244314,-91009.977878,-67667.559405,-187500.022352,-187500.022352,187500.0,-65506.168068,187500.0,187500.0,-77367.165967,-74653.418321,-79738.037853,-134976.35096
1679630791.529361,0,187500.0,-52211.797501,-81043.335026,-92129.912034,-90977.210221,-67633.048312,-187500.022352,-187500.022352,187500.0,-65541.394417,187500.0,187500.0,-77392.624604,-74686.074219,-79749.258429,-134973.959324
1679630791.529393,0,187500.0,-52120.669439,-81050.107604,-92157.91877,-91004.524053,-67645.766454,-187500.022352,-187500.022352,187500.0,-65516.896906,187500.0,187500.0,-77375.033781,-74670.629164,-79767.542156,-135175.147375
1679630791.529425,0,187500.0,-51850.593311,-81094.38641,-92185.679637,-91031.435553,-67672.476789,-187500.022352,-187500.022352,187500.0,-65552.637345,187500.0,187500.0,-77415.602197,-74698.434734,-79697.51414,-135034.800772
1679630791.529456,0,187500.0,-52528.253499,-81060.903497,-92160.846849,-91011.229576,-67653.880138,-187500.022352,-187500.022352,187500.0,-65545.305973,187500.0,187500.0,-77406.013299,-74688.957595,-79770.6714,-135157.422442
1679630791.529492,0,187500.0,-51756.358356,-81095.28048,-92211.674715,-91051.12744,-67704.193914,-187500.022352,-187500.022352,187500.0,-65552.302069,187500.0,187500.0,-77419.558456,-74720.384147,-79710.232283,-135134.556608
1679630791.529526,0,187500.0,-52304.93722,-81106.389297,-92199.604773,-91042.522018,-67694.247388,-187500.022352,-187500.022352,187500.0,-65589.450668,187500.0,187500.0,-77452.884907,-74726.195601,-79717.384841,-135066.003807
1679630791.529605,0,187500.0,-52144.362288,-81106.568111,-92218.64846,-91072.65217,-67717.560258,-187500.022352,-187500.022352,187500.0,-65574.09502,187500.0,187500.0,-77440.792613,-74714.751508,-79745.570391,-135206.640983
1679630791.529639,0,187500.0,-51837.495188,-81134.306626,-92225.041059,-91080.654094,-67726.724473,-187500.022352,-187500.022352,187500.0,-65602.0347,187500.0,187500.0,-77476.823625,-74743.831127,-79691.725038,-135038.466458
1679630791.529672,0,187500.0,-52545.374935,-81107.126904,-92207.941974,-91063.331492,-67705.937351,-187500.022352,-187500.022352,187500.0,-65585.516761,187500.0,187500.0,-77453.846032,-74739.852517,-79770.559641,-135173.493346
1679630791.529703,0,187500.0,-51801.665342,-81129.076317,-92242.900102,-91094.020437,-67738.928525,-187500.022352,-187500.022352,187500.0,-65592.356395,187500.0,187500.0,-77463.233765,-74743.965238,-79722.503391,-135152.01332
1679630791.529738,0,187500.0,-52359.766049,-81128.33871,-92227.23153,-91071.266362,-67717.649665,-187500.022352,-187500.022352,187500.0,-65610.349549,187500.0,187500.0,-77475.393114,-74758.896203,-79733.053414,-135080.465386
1679630791.529772,0,187500.0,-52286.318217,-81105.159951,-92233.601777,-91070.372292,-67729.76431,-187500.022352,-187500.022352,187500.0,-65588.020156,187500.0,187500.0,-77447.274619,-74754.872889,-79767.005714,-135236.167638
1679630791.52981,0,187500.0,-51966.397699,-81134.217219,-92247.236341,-91091.025304,-67750.998467,-187500.022352,-187500.022352,187500.0,-65612.204744,187500.0,187500.0,-77473.135587,-74743.182927,-79699.056411,-135091.305982
1679630791.529861,0,187500.0,-52709.235574,-81108.088029,-92222.671774,-91061.722167,-67728.602019,-187500.022352,-187500.022352,187500.0,-65595.418584,187500.0,187500.0,-77453.30959,-74729.369548,-79773.48772,-135224.812952
1679630791.529897,0,187500.0,-52002.138138,-81141.593294,-92262.86021,-91104.056371,-67767.158779,-187500.022352,-187500.022352,187500.0,-65603.82284,187500.0,187500.0,-77475.370762,-74770.116779,-79715.551998,-135206.618632
1679630791.529936,0,187500.0,-52588.133822,-81140.207486,-92240.284948,-91079.849431,-67743.08595,-187500.022352,-187500.022352,187500.0,-65622.553602,187500.0,187500.0,-77488.021849,-74778.476331,-79727.152553,-135136.680023
1679630791.530018,0,187500.0,-52549.845284,-81138.419347,-92263.709577,-91107.833816,-67763.761313,-187500.022352,-187500.022352,187500.0,-65595.485639,187500.0,187500.0,-77469.224032,-74743.071168,-79764.636429,-135290.39297
1679630791.530069,0,187500.0,-52226.102618,-81157.954771,-92264.335425,-91107.699705,-67761.056752,-187500.022352,-187500.022352,187500.0,-65634.780006,187500.0,187500.0,-77507.333756,-74784.824226,-79703.549111,-135117.099895
1679630791.530099,0,187500.0,-52970.102783,-81127.399937,-92236.283986,-91079.022417,-67735.285191,-187500.022352,-187500.022352,187500.0,-65608.092023,187500.0,187500.0,-77471.928593,-74749.173194,-79776.013467,-135245.242446
1679630791.530128,0,187500.0,-52223.755684,-81161.218126,-92287.223612,-91124.843493,-67791.186904,-187500.022352,-187500.022352,187500.0,-65613.970532,187500.0,187500.0,-77490.569948,-74771.748456,-79718.100097,-135216.945138
1679630791.53016,0,187500.0,-52672.310492,-81179.166577,-92285.547231,-91116.059258,-67793.422078,-187500.022352,-187500.022352,187500.0,-65648.92866,187500.0,187500.0,-77518.107297,-74781.560872,-79720.379975,-135100.045514
1679630791.530192,0,187500.0,-52597.029817,-81156.412501,-92290.464615,-91121.423676,-67788.907026,-187500.022352,-187500.022352,187500.0,-65619.759634,187500.0,187500.0,-77498.9295,-74786.344145,-79764.614077,-135229.350356
1679630791.530221,0,187500.0,-52133.521692,-81203.395868,-92323.299327,-91155.264217,-67823.708692,-187500.022352,-187500.022352,187500.0,-65662.049134,187500.0,187500.0,-77533.842925,-74821.123459,-79691.188597,-135025.03306
1679630791.530249,0,187500.0,-52792.227601,-81167.744835,-92295.516109,-91121.200159,-67796.126639,-187500.022352,-187500.022352,187500.0,-65653.555471,187500.0,187500.0,-77521.415355,-74801.52098,-79767.832728,-135096.245718
1679630791.72264,0,187500.0,-51989.978789,-81186.274431,-92327.680269,-91156.024177,-67832.738797,-187500.022352,-187500.022352,187500.0,-65648.101645,187500.0,187500.0,-77513.681652,-74805.432535,-79719.307091,-135054.067976
1679630791.722681,0,187500.0,-52380.776689,-81183.212243,-92296.924269,-91123.703554,-67799.613512,-187500.022352,-187500.022352,187500.0,-65667.301794,187500.0,187500.0,-77533.552353,-74837.283771,-79717.183675,-134912.67084
1679630791.7227,0,187500.0,-52261.328967,-81172.595164,-92305.90967,-91139.774458,-67817.830183,-187500.022352,-187500.022352,187500.0,-65636.769311,187500.0,187500.0,-77513.27932,-74787.193511,-79750.085443,-135011.644365
1679630791.722837,0,187500.0,-51721.802559,-81213.118877,-92329.557816,-91162.148555,-67841.992419,-187500.022352,-187500.022352,187500.0,-65673.828503,187500.0,187500.0,-77545.041149,-74827.650169,-79673.530719,-134779.320333
1679630791.722872,0,187500.0,-52346.600872,-81188.867234,-92305.932022,-91141.964929,-67812.845744,-187500.022352,-187500.022352,187500.0,-65669.760486,187500.0,187500.0,-77541.151946,-74820.87759,-79737.032025,-134805.114246
1679630791.722908,0,187500.0,-51537.735944,-81211.911882,-92343.013566,-91175.939581,-67849.770826,-187500.022352,-187500.022352,187500.0,-65680.086992,187500.0,187500.0,-77557.893402,-74837.931971,-79690.20512,-134717.920091
1679630791.722943,0,187500.0,-51908.484329,-81216.382231,-92328.32847,-91163.601418,-67835.175137,-187500.022352,-187500.022352,187500.0,-65700.56119,187500.0,187500.0,-77573.651382,-74846.850317,-79693.200254,-134549.119717
1679630791.722971,0,187500.0,-51837.830465,-81191.12476,-92327.81438,-91154.347796,-67826.234439,-187500.022352,-187500.022352,187500.0,-65664.999564,187500.0,187500.0,-77543.834155,-74819.938817,-79741.323559,-134629.004851
1679630791.722995,0,187500.0,-51290.279781,-81224.227694,-92344.198208,-91178.755901,-67843.467634,-187500.022352,-187500.022352,187500.0,-65689.988815,187500.0,187500.0,-77574.321934,-74855.746312,-79670.22266,-134387.181328
1679630791.72302,0,187500.0,-51928.131512,-81186.341487,-92313.241042,-91147.798735,-67819.774785,-187500.022352,-187500.022352,187500.0,-65675.996623,187500.0,187500.0,-77549.980885,-74828.588942,-79746.933847,-134407.387305
1679630791.72304,0,187500.0,-51126.77677,-81208.000327,-92347.059232,-91186.511956,-67852.073056,-187500.022352,-187500.022352,187500.0,-65673.873207,187500.0,187500.0,-77560.352094,-74823.828021,-79699.749315,-134314.001717
1679630791.723059,0,187500.0,-51488.87503,-81200.266624,-92325.422743,-91158.438165,-67829.676608,-187500.022352,-187500.022352,187500.0,-65697.990739,187500.0,187500.0,-77578.278193,-74850.717169,-79697.223568,-134123.38604
1679630791.723077,0,187500.0,-51426.021925,-81191.549443,-92342.097144,-91187.07075,-67850.419027,-187500.022352,-187500.022352,187500.0,-65664.038439,187500.0,187500.0,-77548.170393,-74820.944646,-79738.998978,-134207.830931
1679630791.723097,0,187500.0,-50843.468409,-81221.411374,-92358.525677,-91206.874395,-67865.32764,-187500.022352,-187500.022352,187500.0,-65702.237571,187500.0,187500.0,-77592.762124,-74874.722943,-79661.661942,-133922.421506
1679630791.723149,0,187500.0,-51498.218059,-81186.319135,-92326.294461,-91169.323465,-67823.596933,-187500.022352,-187500.022352,187500.0,-65684.758506,187500.0,187500.0,-77570.835062,-74863.949402,-79731.779365,-133914.129009
1679630791.723168,0,187500.0,-50706.072236,-81201.2501,-92359.486802,-91202.359343,-67856.09637,-187500.022352,-187500.022352,187500.0,-65689.832352,187500.0,187500.0,-77574.5231,-74845.553916,-79694.273137,-133822.643318
1679630791.723187,0,187500.0,-51030.954841,-81204.021717,-92345.293444,-91187.316619,-67845.121663,-187500.022352,-187500.022352,187500.0,-65709.032501,187500.0,187500.0,-77590.079914,-74863.725884,-79691.054486,-133612.536921
1679630791.723206,0,187500.0,-51020.494225,-81179.837129,-92341.717165,-91184.947334,-67843.713503,-187500.022352,-187500.022352,187500.0,-65675.728402,187500.0,187500.0,-77562.900193,-74831.159393,-79747.939676,-133696.400666
1679630791.723225,0,187500.0,-50448.624843,-81195.013964,-92337.291519,-91184.165023,-67837.991457,-187500.022352,-187500.022352,187500.0,-65692.671024,187500.0,187500.0,-77585.877786,-74862.854166,-79674.82712,-133435.220532
1679630791.723244,0,187500.0,-51093.360912,-81183.905147,-92328.730801,-91174.419662,-67827.262619,-187500.022352,-187500.022352,187500.0,-65672.688564,187500.0,187500.0,-77565.716513,-74839.384835,-79736.853211,-133435.399346
1679630791.723262,0,187500.0,-50297.415292,-81203.17235,-92353.116554,-91210.003639,-67854.241175,-187500.022352,-187500.022352,187500.0,-65684.155009,187500.0,187500.0,-77585.117827,-74865.357562,-79696.374201,-133318.902054
1679630791.723282,0,187500.0,-50589.463185,-81211.934234,-92334.60931,-91195.720875,-67835.756282,-187500.022352,-187500.022352,187500.0,-65713.927533,187500.0,187500.0,-77604.720307,-74884.04362,-79694.18373,-133100.257289
1679630791.723302,0,187500.0,-50606.249345,-81200.154865,-92340.309005,-91197.285497,-67840.628963,-187500.022352,-187500.022352,187500.0,-65683.037422,187500.0,187500.0,-77580.178092,-74846.76091,-79748.453766,-133159.489412
1679630791.72332,0,187500.0,-50024.075809,-81236.431746,-92366.415842,-91222.453561,-67865.215881,-187500.022352,-187500.022352,187500.0,-65715.782728,187500.0,187500.0,-77613.839819,-74886.055277,-79682.51612,-132891.246127
1679630791.838128,0,187500.0,-50733.967213,-81211.129571,-92334.408144,-91191.965782,-67834.035198,-187500.022352,-187500.022352,187500.0,-65715.447452,187500.0,187500.0,-77596.494865,-74881.070838,-79751.091272,-132852.823478
1679630791.838165,0,187500.0,-50027.16035,-81219.287958,-92351.864857,-91218.832579,-67852.095407,-187500.022352,-187500.022352,187500.0,-65701.857591,187500.0,187500.0,-77592.538606,-74865.581079,-79722.190466,-132763.528259
1679630791.838185,0,187500.0,-50351.998252,-81224.160638,-92334.363441,-91194.625639,-67824.513355,-187500.022352,-187500.022352,187500.0,-65724.388149,187500.0,187500.0,-77616.454973,-74892.894911,-79706.119562,-132514.663936
1679630791.838205,0,187500.0,-50450.614148,-81209.31908,-92342.007737,-91205.510939,-67837.432663,-187500.022352,-187500.022352,187500.0,-65684.80321,187500.0,187500.0,-77578.188786,-74860.194309,-79761.462481,-132558.674521
1679630791.838223,0,187500.0,-49917.323877,-81226.127592,-92344.868761,-91209.847177,-67843.758207,-187500.022352,-187500.022352,187500.0,-65702.572847,187500.0,187500.0,-77617.796077,-74875.639364,-79695.726001,-132271.409902
1679630791.838241,0,187500.0,-50682.781718,-81197.070324,-92319.186606,-91178.599439,-67815.595009,-187500.022352,-187500.022352,187500.0,-65681.696317,187500.0,187500.0,-77585.743676,-74853.153509,-79772.303077,-132261.642189
1679630791.838265,0,187500.0,-50009.591879,-81217.119839,-92353.138906,-91213.490512,-67839.511375,-187500.022352,-187500.022352,187500.0,-65679.237626,187500.0,187500.0,-77596.517217,-74853.913469,-79733.791022,-132151.805717
1679630791.838283,0,187500.0,-50339.235406,-81227.871028,-92346.813362,-91204.50511,-67828.782538,-187500.022352,-187500.022352,187500.0,-65713.458146,187500.0,187500.0,-77607.670737,-74879.282699,-79720.849362,-131901.712048
1679630791.838301,0,187500.0,-50507.454635,-81191.795312,-92323.656955,-91183.025084,-67817.897238,-187500.022352,-187500.022352,187500.0,-65688.200675,187500.0,187500.0,-77592.829179,-74857.310934,-79779.142711,-131933.742098
1679630791.838318,0,187500.0,-49958.674605,-81227.446345,-92356.804592,-91206.896747,-67842.484157,-187500.022352,-187500.022352,187500.0,-65696.962559,187500.0,187500.0,-77598.595929,-74889.385687,-79704.309071,-131679.468653
1679630791.838336,0,187500.0,-50750.283986,-81190.387152,-92314.895071,-91157.812316,-67793.735003,-187500.022352,-187500.022352,187500.0,-65690.145277,187500.0,187500.0,-77591.443371,-74863.189443,-79764.502318,-131616.168513
1679630791.83841,0,187500.0,-50083.330284,-81220.20438,-92353.965921,-91207.880224,-67842.193585,-187500.022352,-187500.022352,187500.0,-65679.707012,187500.0,187500.0,-77583.352039,-74856.036884,-79736.227362,-131540.619617
1679630791.838429,0,187500.0,-50397.84168,-81223.043051,-92333.804647,-91192.613982,-67829.31898,-187500.022352,-187500.022352,187500.0,-65708.116079,187500.0,187500.0,-77602.552188,-74872.554823,-79724.000957,-131296.270346
1679630791.838446,0,187500.0,-50557.567246,-81213.230635,-92337.313871,-91199.25245,-67836.538593,-187500.022352,-187500.022352,187500.0,-65689.02769,187500.0,187500.0,-77583.575557,-74854.807538,-79779.835615,-131353.46846
1679630791.838464,0,187500.0,-49981.763957,-81236.342339,-92349.584979,-91220.084276,-67855.112893,-187500.022352,-187500.022352,187500.0,-65699.130678,187500.0,187500.0,-77610.956444,-74878.27687,-79715.127315,-131099.910271
1679630791.951728,0,187500.0,-50743.042021,-81217.432763,-92334.832827,-91197.218442,-67829.274276,-187500.022352,-187500.022352,187500.0,-65695.085012,187500.0,187500.0,-77595.243167,-74871.392533,-79790.586804,-131073.222288
1679630791.951818,0,187500.0,-50105.972601,-81219.667938,-92354.748232,-91214.205767,-67848.966163,-187500.022352,-187500.022352,187500.0,-65681.383393,187500.0,187500.0,-77596.584272,-74877.360449,-79769.576164,-131008.402229
1679630791.951842,0,187500.0,-50418.137064,-81207.977975,-92316.459693,-91175.358436,-67808.531858,-187500.022352,-187500.022352,187500.0,-65687.775992,187500.0,187500.0,-77596.919548,-74872.063085,-79766.581031,-130814.076163
1679630791.951864,0,187500.0,-50629.897491,-81186.743818,-92313.531615,-91180.566392,-67801.245189,-187500.022352,-187500.022352,187500.0,-65647.744018,187500.0,187500.0,-77556.954629,-74826.264361,-79824.941435,-130932.741574
1679630791.951887,0,187500.0,-50006.52969,-81235.761194,-92345.829886,-91220.866587,-67843.177061,-187500.022352,-187500.022352,187500.0,-65678.812942,187500.0,187500.0,-77602.663946,-74856.349809,-79747.783214,-130701.557481
1679630791.951911,0,187500.0,-50805.671609,-81187.079094,-92289.771711,-91163.422604,-67790.069317,-187500.022352,-187500.022352,187500.0,-65664.530178,187500.0,187500.0,-77576.31124,-74831.718186,-79811.955072,-130674.556574
1679630791.952065,0,187500.0,-50161.784907,-81204.625214,-92328.373173,-91203.208709,-67831.800024,-187500.022352,-187500.022352,187500.0,-65657.623489,187500.0,187500.0,-77560.55326,-74840.122442,-79763.474138,-130600.147617
1679630791.952088,0,187500.0,-50399.182784,-81217.38806,-92321.488836,-91196.838462,-67814.723291,-187500.022352,-187500.022352,187500.0,-65694.705033,187500.0,187500.0,-77599.959385,-74884.624765,-79728.426603,-130313.866474
1679630791.95211,0,187500.0,-50611.032618,-81209.520246,-92331.345955,-91202.985192,-67821.317055,-187500.022352,-187500.022352,187500.0,-65680.534027,187500.0,187500.0,-77573.092589,-74858.942611,-79795.593595,-130349.025768
1679630791.952135,0,187500.0,-49973.60557,-81239.784508,-92354.457659,-91221.134808,-67831.285933,-187500.022352,-187500.022352,187500.0,-65700.516486,187500.0,187500.0,-77609.727098,-74872.219547,-79717.720117,-130066.812642
1679630791.952165,0,187500.0,-50739.778666,-81219.712641,-92327.769676,-91193.798625,-67808.17423,-187500.022352,-187500.022352,187500.0,-65697.141373,187500.0,187500.0,-77597.388935,-74860.931916,-79743.469327,-129893.184292
1679630791.952193,0,187500.0,-50090.393435,-81237.772851,-92363.934799,-91222.967651,-67847.490948,-187500.022352,-187500.022352,187500.0,-65704.852725,187500.0,187500.0,-77601.68047,-74885.116504,-79715.57435,-129747.60738
1679630791.95222,0,187500.0,-50311.631001,-81234.084813,-92334.899883,-91196.905517,-67823.149898,-187500.022352,-187500.022352,187500.0,-65719.113138,187500.0,187500.0,-77612.744583,-74888.692783,-79695.59189,-129448.004597
1679630791.952245,0,187500.0,-50545.96669,-81219.578531,-92347.618025,-91206.852043,-67830.034236,-187500.022352,-187500.022352,187500.0,-65698.616588,187500.0,187500.0,-77587.621222,-74871.839568,-79735.69092,-129426.077536
1679630792.385539,0,187500.0,-49868.28415,-81251.653284,-92372.048482,-91228.577939,-67855.694038,-187500.022352,-187500.022352,187500.0,-65722.912934,187500.0,187500.0,-77619.740679,-74905.836571,-79649.346131,-129055.105633
1679630792.385588,0,187500.0,-50632.914976,-81212.247159,-92323.500493,-91186.288439,-67812.577523,-187500.022352,-187500.022352,187500.0,-65717.660274,187500.0,187500.0,-77599.288833,-74867.458626,-79741.211801,-128969.498452
1679630792.385616,0,187500.0,-50035.586957,-81208.559121,-92344.801705,-91198.067808,-67841.031294,-187500.022352,-187500.022352,187500.0,-65683.797381,187500.0,187500.0,-77572.623202,-74846.738559,-79725.207952,-128909.372259
1679630792.385699,0,187500.0,-50227.052,-81217.879798,-92336.464505,-91180.387578,-67822.836974,-187500.022352,-187500.022352,187500.0,-65711.737062,187500.0,187500.0,-77599.624109,-74889.452742,-79685.399495,-128609.81418
1679630792.385718,0,187500.0,-50488.075672,-81209.45319,-92345.204037,-91199.721837,-67840.070169,-187500.022352,-187500.022352,187500.0,-65689.117097,187500.0,187500.0,-77574.768969,-74856.61803,-79745.346873,-128629.439012
1679630792.385736,0,187500.0,-49829.906205,-81236.968188,-92354.994101,-91214.697506,-67857.884509,-187500.022352,-187500.022352,187500.0,-65716.006245,187500.0,187500.0,-77599.825275,-74901.232112,-79691.568576,-128366.783663
1679630792.385754,0,187500.0,-50564.831563,-81214.527036,-92320.885339,-91186.646067,-67825.161555,-187500.022352,-187500.022352,187500.0,-65706.216181,187500.0,187500.0,-77592.873882,-74869.157358,-79772.392484,-128340.60977
1679630792.385774,0,187500.0,-49960.730965,-81213.878836,-92343.125325,-91206.80734,-67846.418064,-187500.022352,-187500.022352,187500.0,-65678.321204,187500.0,187500.0,-77578.635821,-74856.394512,-79746.397405,-128277.06376
1679630792.385792,0,187500.0,-50089.208792,-81230.217961,-92339.280825,-91202.426398,-67844.965201,-187500.022352,-187500.022352,187500.0,-65715.805079,187500.0,187500.0,-77594.63967,-74887.306975,-79716.446068,-128017.358842
1679630792.385809,0,187500.0,-50359.821362,-81213.252987,-92337.537389,-91200.727666,-67840.941887,-187500.022352,-187500.022352,187500.0,-65697.901332,187500.0,187500.0,-77575.193653,-74865.491672,-79796.308851,-128088.035058
1679630792.385825,0,187500.0,-49673.891029,-81237.817554,-92347.953301,-91208.997811,-67847.781521,-187500.022352,-187500.022352,187500.0,-65723.449376,187500.0,187500.0,-77598.685336,-74892.336117,-79734.66274,-127862.125976
1679630792.38585,0,187500.0,-50421.93686,-81209.408487,-92314.470388,-91170.329293,-67810.252942,-187500.022352,-187500.022352,187500.0,-65697.811925,187500.0,187500.0,-77570.455083,-74866.028114,-79802.924967,-127849.340779
1679630792.38587,0,187500.0,-49851.676804,-81223.6689,-92343.393546,-91200.906479,-67845.07696,-187500.022352,-187500.022352,187500.0,-65696.359062,187500.0,187500.0,-77576.914737,-74849.778396,-79806.054211,-127868.630334
1679630792.385889,0,187500.0,-50005.300344,-81223.937121,-92322.896996,-91182.153366,-67825.519183,-187500.022352,-187500.022352,187500.0,-65708.786632,187500.0,187500.0,-77588.649403,-74878.254518,-79806.389488,-127745.002835
1679630792.385938,0,187500.0,-50350.143057,-81187.213205,-92299.740589,-91161.478002,-67807.213105,-187500.022352,-187500.022352,187500.0,-65668.464085,187500.0,187500.0,-77557.982809,-74814.97673,-79878.183291,-127920.933416
1679630792.385961,0,187500.0,-49685.513936,-81212.045993,-92320.25949,-91188.09893,-67828.737835,-187500.022352,-187500.022352,187500.0,-65678.991756,187500.0,187500.0,-77565.448292,-74861.334248,-79803.662575,-127809.845246
1679630792.385978,0,187500.0,-50449.60832,-81197.338545,-92296.343123,-91165.456613,-67800.731099,-187500.022352,-187500.022352,187500.0,-65690.458201,187500.0,187500.0,-77568.398722,-74853.242916,-79850.847107,-127816.863694
1679630792.385996,0,187500.0,-49946.358794,-81199.752533,-92322.472313,-91181.304,-67821.76409,-187500.022352,-187500.022352,187500.0,-65661.915024,187500.0,187500.0,-77552.305466,-74823.001006,-79842.375796,-127876.587555
1679630792.386016,0,187500.0,-50102.351618,-81204.759324,-92297.527766,-91156.761784,-67810.632922,-187500.022352,-187500.022352,187500.0,-65695.353233,187500.0,187500.0,-77578.769932,-74848.794919,-79812.603273,-127718.560722
1679630792.386042,0,187500.0,-50514.763655,-81170.672914,-92284.407292,-91149.206895,-67805.782593,-187500.022352,-187500.022352,187500.0,-65638.624506,187500.0,187500.0,-77530.043129,-74809.165276,-79889.113294,-127929.740003
1679630792.386059,0,187500.0,-49860.841019,-81196.37742,-92309.642411,-91175.783119,-67829.117814,-187500.022352,-187500.022352,187500.0,-65665.915986,187500.0,187500.0,-77556.038208,-74828.521887,-79819.442906,-127828.285435
1679630792.386076,0,187500.0,-50651.332814,-81172.505757,-92278.349969,-91143.708365,-67804.285026,-187500.022352,-187500.022352,187500.0,-65663.904329,187500.0,187500.0,-77548.796242,-74811.512209,-79883.860634,-127892.971384
1679630792.386094,0,187500.0,-50177.140555,-81167.521318,-92294.51028,-91160.740395,-67826.077977,-187500.022352,-187500.022352,187500.0,-65644.257145,187500.0,187500.0,-77534.625236,-74816.273131,-79876.439855,-127998.158693
1679630792.386111,0,187500.0,-50308.680571,-81167.476614,-92275.041911,-91136.242883,-67806.587256,-187500.022352,-187500.022352,187500.0,-65655.947108,187500.0,187500.0,-77528.746728,-74812.786259,-79842.331093,-127898.939299
1679630792.386153,0,187500.0,-50722.500768,-81150.846917,-92269.00694,-91139.930921,-67805.849648,-187500.022352,-187500.022352,187500.0,-65643.676,187500.0,187500.0,-77513.949873,-74811.378099,-79901.026774,-128092.415999
1679630792.386171,0,187500.0,-50070.388624,-81172.639867,-92285.055493,-91157.387633,-67815.974988,-187500.022352,-187500.022352,187500.0,-65649.509805,187500.0,187500.0,-77525.70689,-74807.757116,-79833.45745,-128020.912769
1679630792.386196,0,187500.0,-50848.944586,-81166.180213,-92270.571562,-91142.590778,-67790.426945,-187500.022352,-187500.022352,187500.0,-65663.233776,187500.0,187500.0,-77528.858486,-74833.238105,-79877.892718,-128070.846566
1679630792.386216,0,187500.0,-50418.315878,-81163.363893,-92283.557926,-91155.085403,-67815.125622,-187500.022352,-187500.022352,187500.0,-65647.609907,187500.0,187500.0,-77521.840039,-74799.174046,-79879.613802,-128193.26707
1679630792.386235,0,187500.0,-50534.097914,-81179.904184,-92275.15367,-91147.038775,-67803.212142,-187500.022352,-187500.022352,187500.0,-65662.362058,187500.0,187500.0,-77538.760309,-74821.235218,-79845.281523,-128080.301354
1679630792.386252,0,187500.0,-50993.202745,-81150.355178,-92265.475364,-91134.521798,-67790.270482,-187500.022352,-187500.022352,187500.0,-65644.70418,187500.0,187500.0,-77522.555294,-74801.453924,-79906.905282,-128258.489461
1679630792.386268,0,187500.0,-50289.905106,-81173.980972,-92285.435472,-91154.414851,-67819.730082,-187500.022352,-187500.022352,187500.0,-65652.169663,187500.0,187500.0,-77527.785603,-74798.637605,-79826.349595,-128165.394445
1679630792.386285,0,187500.0,-51072.551438,-81149.684626,-92250.566751,-91113.734676,-67783.855532,-187500.022352,-187500.022352,187500.0,-65651.119131,187500.0,187500.0,-77523.471716,-74825.504401,-79859.631343,-128180.548928
1679630792.386302,0,187500.0,-50614.944174,-81156.926591,-92280.965123,-91142.791944,-67811.77286,-187500.022352,-187500.022352,187500.0,-65624.162927,187500.0,187500.0,-77508.540751,-74795.597767,-79847.583753,-128297.381496
1679630792.386325,0,187500.0,-50618.788674,-81171.701094,-92267.08469,-91132.465438,-67794.427907,-187500.022352,-187500.022352,187500.0,-65650.739151,187500.0,187500.0,-77545.242315,-74822.755137,-79804.310775,-128142.662721
1679630792.386346,0,187500.0,-51171.189686,-81139.961617,-92255.864114,-91119.523778,-67780.323956,-187500.022352,-187500.022352,187500.0,-65605.409814,187500.0,187500.0,-77500.762343,-74765.355857,-79884.754704,-128374.539718
1679630792.386393,0,187500.0,-50292.430853,-81186.363838,-92296.365475,-91158.639331,-67826.614419,-187500.022352,-187500.022352,187500.0,-65633.595363,187500.0,187500.0,-77536.771004,-74806.348956,-79811.28452,-128292.330002
1679630792.386411,0,187500.0,-50983.949123,-81173.846862,-92270.191582,-91129.984394,-67795.076107,-187500.022352,-187500.022352,187500.0,-65656.371791,187500.0,187500.0,-77541.800146,-74822.844544,-79852.836413,-128296.420371
1679630792.386429,0,187500.0,-50450.167114,-81154.087919,-92274.751338,-91135.415868,-67800.082898,-187500.022352,-187500.022352,187500.0,-65622.710064,187500.0,187500.0,-77513.14521,-74786.522959,-79846.555572,-128433.50362
1679630792.386447,0,187500.0,-50141.981261,-81192.287051,-92293.169176,-91150.190371,-67814.678587,-187500.022352,-187500.022352,187500.0,-65647.453445,187500.0,187500.0,-77545.666998,-74814.820268,-79780.170891,-128245.592504
1679630792.386469,0,187500.0,-50359.933121,-81178.674838,-92291.716312,-91147.262293,-67813.516297,-187500.022352,-187500.022352,187500.0,-65649.599212,187500.0,187500.0,-77541.710739,-74812.585093,-79842.822831,-128351.11509
1679630792.386486,0,187500.0,-49406.407703,-81201.697135,-92317.331412,-91164.808412,-67838.192622,-187500.022352,-187500.022352,187500.0,-65663.166721,187500.0,187500.0,-77556.775815,-74828.521887,-79769.77733,-128222.011414
1679630792.386503,0,187500.0,-49649.237054,-81191.057705,-92303.003943,-91148.89397,-67817.047872,-187500.022352,-187500.022352,187500.0,-65675.571939,187500.0,187500.0,-77553.89244,-74822.196343,-79805.830694,-128151.804584
1679630792.386519,0,187500.0,-48891.80349,-81177.087865,-92311.519958,-91151.531476,-67832.537631,-187500.022352,-187500.022352,187500.0,-65658.115227,187500.0,187500.0,-77548.148042,-74824.632683,-79798.186397,-128148.451823
1679630792.386538,0,187500.0,-48346.957367,-81211.375441,-92326.652089,-91177.817127,-67852.25187,-187500.022352,-187500.022352,187500.0,-65672.397992,187500.0,187500.0,-77555.099434,-74841.396492,-79743.268161,-127938.837163
1679630792.386556,0,187500.0,-48056.00471,-81202.613557,-92324.394563,-91173.771462,-67852.788312,-187500.022352,-187500.022352,187500.0,-65674.968442,187500.0,187500.0,-77567.258783,-74837.797861,-79797.739362,-127902.202654
1679630792.386573,0,187500.0,-46818.098047,-81226.149944,-92347.03688,-91197.620773,-67872.614309,-187500.022352,-187500.022352,187500.0,-65688.245379,187500.0,187500.0,-77584.335516,-74844.972771,-79737.121431,-127687.78237
1679630792.386612,0,187500.0,-46423.612109,-81237.63874,-92346.6569,-91201.241756,-67872.055515,-187500.022352,-187500.022352,187500.0,-65699.912989,187500.0,187500.0,-77602.596891,-74867.704495,-79770.045551,-127508.476676
1679630792.386634,0,187500.0,-45250.056118,-81241.952627,-92364.784165,-91217.357363,-67902.163315,-187500.022352,-187500.022352,187500.0,-65693.430983,187500.0,187500.0,-77598.931205,-74856.796844,-79767.542156,-127366.990133
1679630792.386657,0,187500.0,-44291.635667,-81254.067272,-92358.883304,-91204.303945,-67887.277053,-187500.022352,-187500.022352,187500.0,-65719.224896,187500.0,187500.0,-77630.424813,-74902.036774,-79726.817277,-127066.895612
1679630792.386675,0,187500.0,-43582.236002,-81251.295656,-92374.574229,-91219.324317,-67910.455812,-187500.022352,-187500.022352,187500.0,-65710.418309,187500.0,187500.0,-77612.163438,-74864.709361,-79778.069827,-126949.347788
1679630792.386691,0,187500.0,-42226.803866,-81274.809691,-92395.339,-91240.044384,-67930.527679,-187500.022352,-187500.022352,187500.0,-65740.637868,187500.0,187500.0,-77631.40829,-74887.128161,-79719.888237,-126657.992799
1679630792.386712,0,187500.0,-41707.326973,-81274.966153,-92382.218526,-91231.126038,-67915.261437,-187500.022352,-187500.022352,187500.0,-65739.497929,187500.0,187500.0,-77635.878639,-74911.446859,-79752.186507,-126427.121631
1679630792.386728,0,187500.0,-40726.018337,-81275.480244,-92402.335096,-91253.433079,-67936.629705,-187500.022352,-187500.022352,187500.0,-65744.63883,187500.0,187500.0,-77640.214877,-74916.744222,-79763.317676,-126249.581724
1679630792.38675,0,187500.0,-39839.928131,-81301.83295,-92411.432256,-91269.794556,-67953.259403,-187500.022352,-187500.022352,187500.0,-65765.202435,187500.0,187500.0,-77658.364494,-74927.115432,-79740.250676,-125996.045887
1679630792.539236,0,187500.0,-39000.776589,-81275.167319,-92395.897793,-91253.030748,-67945.235127,-187500.022352,-187500.022352,187500.0,-65763.235481,187500.0,187500.0,-77656.084616,-74927.98715,-79797.404086,-125821.299949
1679630792.539277,0,187500.0,-37753.772766,-81296.893215,-92412.236918,-91279.674027,-67970.13497,-187500.022352,-187500.022352,187500.0,-65765.381249,187500.0,187500.0,-77660.75613,-74909.323443,-79755.718083,-125612.020566
1679630792.539375,0,187500.0,-36834.221999,-81318.686166,-92420.618823,-91295.230841,-67976.840493,-187500.022352,-187500.022352,187500.0,-65779.172275,187500.0,187500.0,-77680.179796,-74933.485679,-79784.752999,-125399.008441
1679630792.539398,0,187500.0,-35502.214492,-81304.984546,-92420.507064,-91292.772149,-67975.789961,-187500.022352,-187500.022352,187500.0,-65775.305423,187500.0,187500.0,-77687.108837,-74945.242696,-79793.537234,-125175.66981
1679630792.539419,0,187500.0,-34295.220291,-81324.76584,-92436.890893,-91295.543765,-67982.271967,-187500.022352,-187500.022352,187500.0,-65786.123667,187500.0,187500.0,-77678.771636,-74958.162005,-79772.548946,-124932.907514
1679630792.53944,0,187500.0,-33225.778726,-81312.807657,-92439.103715,-91287.206565,-67972.548958,-187500.022352,-187500.022352,187500.0,-65798.32772,187500.0,187500.0,-77689.947509,-74954.719836,-79824.650863,-124743.141203
1679630792.53946,0,187500.0,-31854.901535,-81329.973797,-92455.487544,-91302.562213,-67996.822953,-187500.022352,-187500.022352,187500.0,-65797.29954,187500.0,187500.0,-77693.970823,-74975.931642,-79786.228214,-124509.364308
1679630792.539481,0,187500.0,-30978.17671,-81332.007805,-92446.613901,-91297.957754,-67992.196142,-187500.022352,-187500.022352,187500.0,-65812.431671,187500.0,187500.0,-77700.117552,-74966.208633,-79813.184418,-124273.955735
1679630792.5395,0,187500.0,-29844.250362,-81325.27993,-92458.817954,-91306.563176,-68000.600398,-187500.022352,-187500.022352,187500.0,-65805.726147,187500.0,187500.0,-77700.899863,-74978.189168,-79817.721822,-124061.524756
1679630792.53952,0,187500.0,-28856.727941,-81342.334311,-92459.823782,-91311.413504,-68005.517781,-187500.022352,-187500.022352,187500.0,-65808.475412,187500.0,187500.0,-77707.761849,-74961.447711,-79794.49836,-123838.163774
1679630792.53954,0,187500.0,-27992.453038,-81341.03791,-92469.122108,-91319.214263,-68019.912305,-187500.022352,-187500.022352,187500.0,-65818.265476,187500.0,187500.0,-77702.129209,-74982.033668,-79826.14843,-123595.624995
1679630792.53956,0,187500.0,-26842.433434,-81369.73755,-92494.312524,-91348.048013,-68038.531308,-187500.022352,-187500.022352,187500.0,-65843.232375,187500.0,187500.0,-77727.699605,-75000.540912,-79752.432376,-123177.848539
1679630792.539581,0,187500.0,-26231.694368,-81367.882355,-92477.302847,-91333.340565,-68030.305866,-187500.022352,-187500.022352,187500.0,-65853.491825,187500.0,187500.0,-77732.50523,-74999.803305,-79765.195223,-122781.261537
1679630792.539629,0,187500.0,-25374.9073,-81371.458634,-92495.251297,-91353.479487,-68047.494358,-187500.022352,-187500.022352,187500.0,-65845.691066,187500.0,187500.0,-77732.304064,-74996.003508,-79748.073786,-122352.979762
1679630792.53965,0,187500.0,-24765.464636,-81377.962992,-92488.612829,-91337.319176,-68032.943372,-187500.022352,-187500.022352,187500.0,-65853.022439,187500.0,187500.0,-77744.664579,-74996.607005,-79709.248806,-121886.722372
1679630792.53967,0,187500.0,-24400.72887,-81379.527614,-92503.946126,-91345.052879,-68047.293192,-187500.022352,-187500.022352,187500.0,-65847.725075,187500.0,187500.0,-77740.976541,-74998.953938,-79748.297304,-121488.034307
1679630792.539689,0,187500.0,-23946.206146,-81383.014486,-92508.796455,-91353.054804,-68047.539061,-187500.022352,-187500.022352,187500.0,-65861.918433,187500.0,187500.0,-77744.463413,-75007.022918,-79711.774553,-121029.2424
1679630792.539709,0,187500.0,-24103.428317,-81384.489701,-92494.13371,-91335.218112,-68044.633334,-187500.022352,-187500.022352,187500.0,-65850.049657,187500.0,187500.0,-77742.675274,-75009.705127,-79743.826955,-120626.53102
1679630792.539728,0,187500.0,-24042.899793,-81368.687018,-92492.770254,-91337.967376,-68045.125073,-187500.022352,-187500.022352,187500.0,-65849.222642,187500.0,187500.0,-77735.098032,-75001.658499,-79745.324522,-120208.754564
1679630792.539748,0,187500.0,-24229.80508,-81373.135015,-92481.19205,-91326.053897,-68029.881183,-187500.022352,-187500.022352,187500.0,-65859.079761,187500.0,187500.0,-77739.076643,-75002.641976,-79702.409172,-119739.6138
1679630792.830488,0,187500.0,-24779.568586,-81345.91059,-92466.216381,-91307.39019,-68010.301055,-187500.022352,-187500.022352,187500.0,-65830.670694,187500.0,187500.0,-77705.07964,-74974.232909,-79747.112661,-119339.048188
1679630792.830534,0,187500.0,-25192.427658,-81347.475213,-92467.713948,-91304.95385,-68012.357415,-187500.022352,-187500.022352,187500.0,-65835.833947,187500.0,187500.0,-77713.618006,-74984.648822,-79680.839739,-118821.18062
1679630792.830555,0,187500.0,-26088.710259,-81339.070957,-92446.569198,-91284.591411,-67990.586816,-187500.022352,-187500.022352,187500.0,-65818.198421,187500.0,187500.0,-77702.240968,-74958.564336,-79694.004916,-118288.404439
1679630792.830572,0,187500.0,-26678.528092,-81337.148707,-92461.164887,-91299.768245,-68000.75686,-187500.022352,-187500.022352,187500.0,-65823.518136,187500.0,187500.0,-77710.891093,-74956.597383,-79689.109884,-117736.42811
1679630792.830647,0,187500.0,-27420.807173,-81327.380994,-92434.275739,-91281.819794,-67976.974604,-187500.022352,-187500.022352,187500.0,-65820.053616,187500.0,187500.0,-77695.669555,-74962.341781,-79660.007913,-117226.048377
1679630792.830664,0,187500.0,-28276.16373,-81300.715363,-92422.026983,-91263.647826,-67969.844397,-187500.022352,-187500.022352,187500.0,-65787.934159,187500.0,187500.0,-77672.714314,-74941.979342,-79697.044754,-116810.060061
1679630792.830681,0,187500.0,-28698.522293,-81320.675471,-92445.541018,-91293.867385,-67986.585854,-187500.022352,-187500.022352,187500.0,-65805.301464,187500.0,187500.0,-77687.01943,-74955.92683,-79617.763116,-116222.857383
1679630792.830699,0,187500.0,-29454.123015,-81330.800811,-92440.556579,-91297.376609,-67981.512008,-187500.022352,-187500.022352,187500.0,-65820.701816,187500.0,187500.0,-77709.795858,-74962.408836,-79580.882738,-115521.034958
1679630792.830717,0,187500.0,-29855.046255,-81311.846532,-92441.629462,-91309.848882,-67990.586816,-187500.022352,-187500.022352,187500.0,-65806.3967,187500.0,187500.0,-77695.580148,-74957.446749,-79524.15401,-114703.45285
1679630792.830734,0,187500.0,-30263.926716,-81348.615151,-92466.238733,-91343.555313,-67999.683976,-187500.022352,-187500.022352,187500.0,-65837.845604,187500.0,187500.0,-77731.007663,-74986.258148,-79442.704254,-113748.094588
1679630792.830751,0,187500.0,-30824.329653,-81338.869791,-92464.718814,-91345.119935,-68004.534305,-187500.022352,-187500.022352,187500.0,-65849.088532,187500.0,187500.0,-77734.785108,-74976.781008,-79482.423303,-112834.243516
1679630792.830769,0,187500.0,-30985.888062,-81350.13507,-92477.615771,-91360.810859,-68020.292285,-187500.022352,-187500.022352,187500.0,-65864.82416,187500.0,187500.0,-77762.836547,-75013.370814,-79451.644951,-111884.137915
1679630792.830786,0,187500.0,-31550.649589,-81335.986416,-92457.722718,-91343.667071,-68008.043529,-187500.022352,-187500.022352,187500.0,-65847.613316,187500.0,187500.0,-77741.512983,-74996.428191,-79487.005411,-111046.439236
1679630792.830802,0,187500.0,-31669.985553,-81355.745358,-92497.575879,-91380.16747,-68044.588631,-187500.022352,-187500.022352,187500.0,-65864.846511,187500.0,187500.0,-77758.76853,-75021.797421,-79490.805208,-110196.245932
1679630792.830913,0,187500.0,-31854.812128,-81346.335274,-92475.04532,-91350.774926,-68009.250523,-187500.022352,-187500.022352,187500.0,-65860.197349,187500.0,187500.0,-77764.1553,-75022.04329,-79463.849004,-109356.267376
1679630792.83093,0,187500.0,-32252.851993,-81319.803753,-92460.0473,-91334.726374,-67993.604302,-187500.022352,-187500.022352,187500.0,-65835.029284,187500.0,187500.0,-77742.474108,-74995.779991,-79501.578748,-108652.165073
1679630792.830947,0,187500.0,-32344.158869,-81325.525799,-92466.484602,-91338.727336,-67995.794773,-187500.022352,-187500.022352,187500.0,-65837.53268,187500.0,187500.0,-77741.200059,-74983.59829,-79452.047283,-107939.882033
1679630792.830965,0,187500.0,-33006.73163,-81300.335383,-92429.961852,-91301.332867,-67968.883272,-187500.022352,-187500.022352,187500.0,-65826.423863,187500.0,187500.0,-77727.185515,-74970.500168,-79483.004449,-107349.058372
1679630792.830982,0,187500.0,-33585.999439,-81268.506499,-92420.641174,-91295.297896,-67960.277851,-187500.022352,-187500.022352,187500.0,-65800.473487,187500.0,187500.0,-77685.298346,-74968.108531,-79497.130751,-106855.978889
1679630792.831008,0,187500.0,-34501.795113,-81263.432653,-92390.376912,-91270.308646,-67923.129251,-187500.022352,-187500.022352,187500.0,-65789.677595,187500.0,187500.0,-77686.974727,-74932.166926,-79472.163853,-106454.854483
1679630792.831026,0,187500.0,-36030.252103,-81217.90215,-92343.393546,-91219.279613,-67879.789219,-187500.022352,-187500.022352,187500.0,-65735.586373,187500.0,187500.0,-77643.701749,-74889.944481,-79558.732159,-106292.536115
1679630792.831043,0,187500.0,-37319.21015,-81207.888568,-92328.127304,-91208.2155,-67863.695963,-187500.022352,-187500.022352,187500.0,-65737.910955,187500.0,187500.0,-77622.802868,-74875.773475,-79569.013961,-106145.796912
1679630792.83106,0,187500.0,-39087.322544,-81172.058722,-92268.716367,-91149.206895,-67803.681529,-187500.022352,-187500.022352,187500.0,-65690.748774,187500.0,187500.0,-77590.504597,-74842.26821,-79638.416128,-106076.595912
1679630792.831077,0,187500.0,-40484.999476,-81140.363948,-92257.898123,-91135.684089,-67797.311282,-187500.022352,-187500.022352,187500.0,-65640.457349,187500.0,187500.0,-77541.509574,-74805.209017,-79695.837759,-106003.840983
1679630792.831093,0,187500.0,-41902.055371,-81135.290102,-92241.961329,-91118.026211,-67774.512502,-187500.022352,-187500.022352,187500.0,-65646.8723,187500.0,187500.0,-77538.246219,-74797.855293,-79661.527832,-105794.136917
1679630792.831138,0,187500.0,-43882.196412,-81114.36887,-92230.114905,-91108.28085,-67755.737037,-187500.022352,-187500.022352,187500.0,-65620.720759,187500.0,187500.0,-77516.8556,-74765.869947,-79690.294527,-105558.728344
1679630792.831156,0,187500.0,-45613.428427,-81105.070544,-92221.062448,-91095.897984,-67738.973229,-187500.022352,-187500.022352,187500.0,-65623.04534,187500.0,187500.0,-77520.387175,-74764.37238,-79626.435593,-105130.223051
1679630792.831173,0,187500.0,-47689.413749,-81076.952049,-92176.381311,-91060.023434,-67703.053975,-187500.022352,-187500.022352,187500.0,-65573.290357,187500.0,187500.0,-77482.948003,-74732.141165,-79609.35886,-104641.457455
1679630792.83119,0,187500.0,-49619.643345,-81070.112416,-92193.011009,-91065.141984,-67704.77506,-187500.022352,-187500.022352,187500.0,-65572.888025,187500.0,187500.0,-77475.683686,-74732.476441,-79558.396883,-104062.010832
1679630792.831208,0,187500.0,-51730.542091,-81075.655648,-92178.728244,-91050.926274,-67690.916978,-187500.022352,-187500.022352,187500.0,-65590.948235,187500.0,187500.0,-77488.133608,-74713.857438,-79467.268821,-103451.003546
1679630792.831224,0,187500.0,-54065.360614,-81031.466249,-92134.717659,-91012.727143,-67656.09296,-187500.022352,-187500.022352,187500.0,-65557.510025,187500.0,187500.0,-77451.76732,-74687.191807,-79452.226097,-102935.438208
1679630792.831241,0,187500.0,-55604.524088,-81029.722813,-92139.188008,-91020.550253,-67658.976335,-187500.022352,-187500.022352,187500.0,-65524.138871,187500.0,187500.0,-77443.519526,-74663.498958,-79350.525659,-102390.033292
1679630792.831257,0,187500.0,-57011.052312,-81055.717892,-92145.468848,-91034.453039,-67665.078362,-187500.022352,-187500.022352,187500.0,-65534.241859,187500.0,187500.0,-77471.3698,-74673.803112,-79304.79399,-101824.891785
1679630792.831274,0,187500.0,-57845.867615,-81058.087177,-92164.937218,-91053.452021,-67680.031679,-187500.022352,-187500.022352,187500.0,-65528.60922,187500.0,187500.0,-77472.733256,-74691.282176,-79292.545234,-101331.521729
1679630792.83129,0,187500.0,-58473.258731,-81089.312564,-92182.684503,-91071.221658,-67701.042318,-187500.022352,-187500.022352,187500.0,-65553.576118,187500.0,187500.0,-77504.763306,-74694.590234,-79243.594914,-100867.812439
1679630792.831307,0,187500.0,-59360.488875,-81084.77516,-92179.868183,-91059.956379,-67693.353318,-187500.022352,-187500.022352,187500.0,-65547.563499,187500.0,187500.0,-77501.812875,-74688.801132,-79290.243005,-100554.284519
1679630793.297304,0,187500.0,-59788.949464,-81087.680887,-92191.222869,-91070.282885,-67709.379519,-187500.022352,-187500.022352,187500.0,-65554.514891,187500.0,187500.0,-77494.4368,-74700.155818,-79264.382036,-100291.472708
1679630793.29735,0,187500.0,-60647.032934,-81092.955898,-92191.334628,-91062.66094,-67700.818801,-187500.022352,-187500.022352,187500.0,-65550.26806,187500.0,187500.0,-77502.863407,-74709.185923,-79293.327545,-100183.066748
1679630793.297384,0,187500.0,-61155.624527,-81094.855797,-92222.560015,-91081.503461,-67725.651589,-187500.022352,-187500.022352,187500.0,-65547.585851,187500.0,187500.0,-77507.266701,-74714.0139,-79319.926121,-100173.544904
1679630793.297419,0,187500.0,-61556.279547,-81108.289195,-92220.57071,-91081.771682,-67725.204554,-187500.022352,-187500.022352,187500.0,-65570.272871,187500.0,187500.0,-77528.053823,-74739.584296,-79285.996173,-100137.424485
1679630793.29744,0,187500.0,-62205.329502,-81116.648748,-92224.281099,-91090.600621,-67723.684636,-187500.022352,-187500.022352,187500.0,-65559.476979,187500.0,187500.0,-77529.014948,-74731.515316,-79366.462453,-100279.939208
1679630793.297463,0,187500.0,-62446.594232,-81097.448599,-92193.569802,-91070.975789,-67708.194877,-187500.022352,-187500.022352,187500.0,-65535.694723,187500.0,187500.0,-77507.266701,-74700.960481,-79382.063971,-100472.879466
1679630793.297483,0,187500.0,-63146.114426,-81112.468971,-92195.156776,-91078.105995,-67706.406737,-187500.022352,-187500.022352,187500.0,-65536.968772,187500.0,187500.0,-77503.310442,-74697.272443,-79439.820878,-100779.16542
1679630793.297503,0,187500.0,-63728.377369,-81086.451541,-92186.23843,-91064.560838,-67699.768269,-187500.022352,-187500.022352,187500.0,-65529.235068,187500.0,187500.0,-77499.220073,-74701.429868,-79504.305661,-101152.841884
1679630793.297522,0,187500.0,-64331.829766,-81101.114285,-92188.630067,-91069.768795,-67700.215304,-187500.022352,-187500.022352,187500.0,-65534.823005,187500.0,187500.0,-77506.238521,-74695.238435,-79508.328975,-101567.66791
1679630793.297542,0,187500.0,-65302.096641,-81070.470043,-92159.773965,-91047.037071,-67682.624481,-187500.022352,-187500.022352,187500.0,-65522.417786,187500.0,187500.0,-77489.18414,-74673.713705,-79595.813703,-102080.998073
1679630793.297666,0,187500.0,-65881.252692,-81066.938468,-92158.611674,-91051.283902,-67685.977243,-187500.022352,-187500.022352,187500.0,-65504.156411,187500.0,187500.0,-77470.900413,-74668.617507,-79598.875892,-102636.081295
1679630793.297688,0,187500.0,-67008.115889,-81053.080386,-92127.565101,-91016.66105,-67651.175577,-187500.022352,-187500.022352,187500.0,-65511.688949,187500.0,187500.0,-77478.075323,-74658.469815,-79642.305332,-103277.285788
1679630793.29771,1,187500.0,-68161.600013,-81017.027022,-92106.040371,-90988.676666,-67612.842335,-187500.022352,-187500.022352,187500.0,-65461.777504,187500.0,187500.0,-77419.804325,-74615.688576,-79701.068068,-104062.971957
1679630793.29773,1,187500.0,-69345.974248,-81008.242787,-92092.18229,-90970.14707,-67598.224294,-187500.022352,-187500.022352,187500.0,-65448.27705,187500.0,187500.0,-77409.276653,-74598.589492,-79731.265274,-105007.221402
1679630793.297751,1,187500.0,-70804.514981,-80986.136912,-92076.916048,-90952.377433,-67586.847256,-187500.022352,-187500.022352,187500.0,-65421.276143,187500.0,187500.0,-77396.893787,-74579.925785,-79778.293345,-105922.502985
1679630793.297772,1,187500.0,-71813.025691,-80968.680199,-92066.991874,-90946.588331,-67586.020242,-187500.022352,-187500.022352,187500.0,-65405.74168,187500.0,187500.0,-77373.670325,-74556.858785,-79738.328426,-106726.227012
1679630793.297791,1,187500.0,-73191.837751,-80969.194289,-92053.469068,-90927.075258,-67571.245738,-187500.022352,-187500.022352,187500.0,-65407.038082,187500.0,187500.0,-77381.56049,-74564.413674,-79734.550981,-107527.447644
1679630793.297812,1,187500.0,-74381.576405,-80924.468449,-92030.536178,-90900.275517,-67550.615078,-187500.022352,-187500.022352,187500.0,-65370.940014,187500.0,187500.0,-77329.078594,-74544.788843,-79758.132071,-108376.031622
1679630793.297832,1,187500.0,-75368.204757,-80942.327493,-92037.129943,-90903.762389,-67553.632564,-187500.022352,-187500.022352,187500.0,-65387.03327,187500.0,187500.0,-77344.434243,-74530.14845,-79714.009728,-109164.221187
1679630793.297852,1,187500.0,-76680.788598,-80909.805704,-92004.474044,-90872.313484,-67524.24002,-187500.022352,-187500.022352,187500.0,-65356.389029,187500.0,187500.0,-77311.778344,-74507.282616,-79749.817222,-109977.668223
1679630793.297873,1,187500.0,-77436.814003,-80922.456792,-92016.879263,-90890.798377,-67546.323543,-187500.022352,-187500.022352,187500.0,-65354.735,187500.0,187500.0,-77313.678242,-74522.548857,-79700.486922,-110702.71411
1679630793.297922,1,187500.0,-78590.164017,-80925.563684,-92004.16112,-90879.17547,-67535.281782,-187500.022352,-187500.022352,187500.0,-65359.540625,187500.0,187500.0,-77317.120411,-74509.741307,-79703.973794,-111431.291572
1679630793.297943,1,187500.0,-79522.589388,-80918.254664,-92013.437094,-90883.265839,-67538.07575,-187500.022352,-187500.022352,187500.0,-65351.672811,187500.0,187500.0,-77301.720059,-74509.964825,-79726.437298,-112184.120677
1679630793.297963,1,187500.0,-80295.020973,-80907.771696,-91989.833652,-90861.271722,-67509.733738,-187500.022352,-187500.022352,187500.0,-65361.440523,187500.0,187500.0,-77311.286606,-74536.853973,-79684.57248,-112877.717659
1679630793.297983,1,187500.0,-81402.058172,-80907.615233,-91987.88905,-90866.703196,-67509.8902,-187500.022352,-187500.022352,187500.0,-65334.059636,187500.0,187500.0,-77282.229338,-74471.855101,-79715.999033,-113628.155128
1679630793.298004,1,187500.0,-81920.05985,-80934.34792,-92017.460408,-90901.236642,-67546.010619,-187500.022352,-187500.022352,187500.0,-65367.408439,187500.0,187500.0,-77313.432373,-74514.77045,-79672.457835,-114260.731847
1679630793.298024,1,187500.0,-82785.429989,-80921.518018,-91983.843384,-90872.805223,-67515.634598,-187500.022352,-187500.022352,187500.0,-65359.09359,187500.0,187500.0,-77314.03587,-74512.512924,-79681.554995,-114899.321186
1679630793.298043,1,187500.0,-83344.380062,-80916.734745,-92002.954126,-90877.186165,-67533.091311,-187500.022352,-187500.022352,187500.0,-65340.072255,187500.0,187500.0,-77288.15255,-74494.609176,-79692.328536,-115555.143721
1679630793.298059,1,187500.0,-83704.153741,-80947.356635,-92023.473027,-90899.135578,-67558.237023,-187500.022352,-187500.022352,187500.0,-65366.201444,187500.0,187500.0,-77321.479001,-74535.937552,-79644.451099,-116106.203628
1679630793.298075,1,187500.0,-84488.655268,-80941.075795,-92016.633393,-90893.14531,-67554.437227,-187500.022352,-187500.022352,187500.0,-65373.912796,187500.0,187500.0,-77325.144687,-74533.47886,-79683.767817,-116692.847513
1679630793.298092,1,187500.0,-84934.751384,-80945.680254,-92026.043478,-90900.45433,-67553.990192,-187500.022352,-187500.022352,187500.0,-65378.83018,187500.0,187500.0,-77324.854115,-74519.620779,-79660.969038,-117284.408782
1679630793.298108,1,187500.0,-85852.044624,-80936.627798,-92002.641201,-90869.69833,-67525.201145,-187500.022352,-187500.022352,187500.0,-65367.184921,187500.0,187500.0,-77318.349757,-74505.829752,-79683.141969,-117952.994162
1679630793.298145,1,187500.0,-86624.990299,-80927.463582,-92011.626603,-90878.057883,-67543.887203,-187500.022352,-187500.022352,187500.0,-65354.913813,187500.0,187500.0,-77300.267196,-74494.922101,-79701.939786,-118634.543554
1679630793.298162,1,187500.0,-87136.174695,-80941.321664,-92016.767504,-90883.221136,-67557.186491,-187500.022352,-187500.022352,187500.0,-65359.875901,187500.0,187500.0,-77310.70546,-74516.245665,-79663.092454,-119245.03675
1679630793.298179,1,187500.0,-87834.018509,-80939.622931,-92022.780123,-90892.944144,-67560.583956,-187500.022352,-187500.022352,187500.0,-65356.478436,187500.0,187500.0,-77309.431411,-74518.212619,-79703.459704,-119865.56588
1679630793.298196,1,187500.0,-87836.34309,-80956.185574,-92045.198923,-90917.128732,-67586.176704,-187500.022352,-187500.022352,187500.0,-65381.288872,187500.0,187500.0,-77326.530495,-74523.174706,-79674.44714,-120342.619162
1679630793.298212,1,187500.0,-88121.752515,-80961.549993,-92037.398164,-90908.255089,-67567.378887,-187500.022352,-187500.022352,187500.0,-65382.249997,187500.0,187500.0,-77335.247676,-74547.024017,-79684.885405,-120807.624854
1679630793.298229,1,187500.0,-88123.965338,-80965.506252,-92057.492382,-90923.744848,-67591.89875,-187500.022352,-187500.022352,187500.0,-65380.484209,187500.0,187500.0,-77337.125222,-74543.268924,-79722.302225,-121280.051324
1679630793.298245,1,187500.0,-87795.417046,-80971.921202,-92046.294158,-90921.889653,-67592.390489,-187500.022352,-187500.022352,187500.0,-65383.501695,187500.0,187500.0,-77356.034798,-74539.7597,-79693.915509,-121670.290431
1679630793.298261,1,187500.0,-87735.648481,-80988.975583,-92058.386452,-90942.497962,-67608.997835,-187500.022352,-187500.022352,187500.0,-65396.935093,187500.0,187500.0,-77357.621772,-74545.168822,-79734.372167,-122057.422645
1679630793.298277,1,187500.0,-87045.046633,-80993.445932,-92074.12208,-90962.949808,-67630.164937,-187500.022352,-187500.022352,187500.0,-65390.833067,187500.0,187500.0,-77375.167891,-74551.315552,-79716.557827,-122363.820358
1679630793.298294,1,187500.0,-86632.43343,-81010.07563,-92071.126946,-90960.513468,-67619.860783,-187500.022352,-187500.022352,187500.0,-65402.79125,187500.0,187500.0,-77392.714011,-74561.753817,-79717.004861,-122628.599123
1679630793.298331,1,187500.0,-86030.769173,-81019.843342,-92100.050104,-90983.446358,-67645.274716,-187500.022352,-187500.022352,187500.0,-65412.737776,187500.0,187500.0,-77399.486589,-74577.04241,-79743.491679,-122898.988175
1679630793.298348,1,187500.0,-85225.391117,-81031.130973,-92101.391208,-90978.238401,-67646.816986,-187500.022352,-187500.022352,187500.0,-65428.249887,187500.0,187500.0,-77418.70909,-74596.331965,-79712.959196,-123110.435678
1679630793.298364,1,187500.0,-84879.922554,-81037.590627,-92107.962621,-90985.301552,-67648.225146,-187500.022352,-187500.022352,187500.0,-65420.292666,187500.0,187500.0,-77410.349537,-74583.680878,-79760.791929,-123402.461219
1679630793.298381,1,187500.0,-84042.737966,-81058.400101,-92139.389174,-91015.074076,-67678.310594,-187500.022352,-187500.022352,187500.0,-65444.834881,187500.0,187500.0,-77427.828601,-74613.788678,-79740.854173,-123619.295492
1679630793.298397,1,187500.0,-83693.111979,-81074.001619,-92134.33768,-91014.157655,-67672.521493,-187500.022352,-187500.022352,187500.0,-65462.582167,187500.0,187500.0,-77457.757587,-74612.246408,-79739.960103,-123820.640006
1679630793.298414,1,187500.0,-83353.074891,-81060.836442,-92138.584511,-91014.783503,-67680.344603,-187500.022352,-187500.022352,187500.0,-65452.389771,187500.0,187500.0,-77445.598238,-74616.984977,-79760.702522,-124055.646247
1679630793.298429,1,187500.0,-82797.611689,-81081.869433,-92153.090793,-91034.765963,-67697.756612,-187500.022352,-187500.022352,187500.0,-65462.448056,187500.0,187500.0,-77454.963619,-74633.212344,-79707.907701,-124241.299837
1679630793.298446,1,187500.0,-82600.603414,-81095.347535,-92173.117956,-91045.651262,-67707.658435,-187500.022352,-187500.022352,187500.0,-65478.586016,187500.0,187500.0,-77478.723523,-74667.589327,-79711.014594,-124391.324746
1679630793.298462,1,187500.0,-81848.333102,-81103.371811,-92193.748616,-91063.107975,-67736.983924,-187500.022352,-187500.022352,187500.0,-65500.714243,187500.0,187500.0,-77496.470809,-74662.962516,-79643.17705,-124417.543342
1679630793.298479,1,187500.0,-81364.551945,-81134.127812,-92210.691239,-91081.168184,-67757.05579,-187500.022352,-187500.022352,187500.0,-65525.591734,187500.0,187500.0,-77518.286111,-74689.739906,-79604.329718,-124381.735847
1679630793.298495,1,187500.0,-80750.10249,-81123.063698,-92213.485207,-91089.639496,-67761.392028,-187500.022352,-187500.022352,187500.0,-65539.315705,187500.0,187500.0,-77516.050937,-74692.846798,-79613.113953,-124335.467736
1679630793.298532,1,187500.0,-79850.176555,-81156.926591,-92240.352004,-91121.624842,-67790.494,-187500.022352,-187500.022352,187500.0,-65552.302069,187500.0,187500.0,-77539.319103,-74721.993473,-79557.21224,-124221.630302
1679630793.298549,1,187500.0,-79430.209628,-81162.067492,-92237.714498,-91121.155455,-67788.527046,-187500.022352,-187500.022352,187500.0,-65563.544996,187500.0,187500.0,-77556.664056,-74697.898292,-79590.963374,-124147.780138
1679630793.298565,1,187500.0,-78534.08349,-81171.812853,-92253.226608,-91140.936749,-67806.699015,-187500.022352,-187500.022352,187500.0,-65586.500238,187500.0,187500.0,-77571.57267,-74750.737816,-79571.56206,-124025.739613
1679630793.298581,1,187500.0,-78041.249876,-81185.73799,-92248.420983,-91126.944557,-67791.924511,-187500.022352,-187500.022352,187500.0,-65595.016252,187500.0,187500.0,-77573.941955,-74747.921496,-79584.74959,-123939.037197
1679630793.298597,1,187500.0,-77507.490219,-81186.76617,-92268.045815,-91143.686014,-67813.784518,-187500.022352,-187500.022352,187500.0,-65616.049244,187500.0,187500.0,-77578.300545,-74737.103252,-79628.693119,-123890.26569
1679630793.298614,1,187500.0,-76780.924413,-81198.411429,-92272.538516,-91145.988243,-67814.991512,-187500.022352,-187500.022352,187500.0,-65635.517613,187500.0,187500.0,-77585.140179,-74748.413235,-79597.378325,-123784.519587
1679630793.29863,1,187500.0,-76539.726739,-81204.848731,-92274.326655,-91145.496505,-67814.030387,-187500.022352,-187500.022352,187500.0,-65653.376657,187500.0,187500.0,-77596.986603,-74751.721293,-79641.187744,-123728.796688
1679630793.776771,1,187500.0,-75810.769297,-81207.866217,-92291.828071,-91159.600456,-67833.878736,-187500.022352,-187500.022352,187500.0,-65699.935341,187500.0,187500.0,-77596.181941,-74786.165331,-79617.763116,-123620.748355
1679630793.77682,1,187500.0,-75445.608848,-81230.955569,-92301.618135,-91164.316674,-67833.074073,-187500.022352,-187500.022352,187500.0,-65706.372643,187500.0,187500.0,-77609.213008,-74791.395639,-79616.645529,-123507.246197
1679630793.77685,1,187500.0,-75050.295895,-81225.680557,-92317.689039,-91163.176735,-67843.825262,-187500.022352,-187500.022352,187500.0,-65735.720484,187500.0,187500.0,-77613.59395,-74795.776581,-79653.4365,-123437.285237
1679630793.776876,1,187500.0,-74414.098193,-81236.275284,-92324.819246,-91169.569334,-67845.099311,-187500.022352,-187500.022352,187500.0,-65758.742781,187500.0,187500.0,-77624.456897,-74803.19736,-79603.256834,-123294.502293
1679630793.776955,1,187500.0,-74281.395886,-81254.313142,-92339.593749,-91186.914287,-67862.086637,-187500.022352,-187500.022352,187500.0,-65762.609632,187500.0,187500.0,-77622.489944,-74811.445154,-79642.595904,-123222.484973
1679630793.776976,1,187500.0,-73697.925949,-81243.986636,-92334.251682,-91184.857927,-67867.384001,-187500.022352,-187500.022352,187500.0,-65758.98865,187500.0,187500.0,-77628.614322,-74806.684233,-79628.111974,-123108.982814
1679630793.776997,1,187500.0,-73482.790408,-81249.865144,-92314.269223,-91175.045511,-67851.335448,-187500.022352,-187500.022352,187500.0,-65749.109179,187500.0,187500.0,-77631.654159,-74814.46264,-79618.031337,-123011.126877
1679630793.777018,1,187500.0,-73279.322479,-81241.751461,-92321.622946,-91184.38854,-67856.521053,-187500.022352,-187500.022352,187500.0,-65733.060626,187500.0,187500.0,-77622.892275,-74815.691986,-79659.002085,-122975.140569
1679630793.777037,1,187500.0,-72834.455709,-81242.511421,-92314.805664,-91179.493508,-67859.404428,-187500.022352,-187500.022352,187500.0,-65724.00817,187500.0,187500.0,-77620.835915,-74818.374195,-79629.006044,-122889.712201
1679630793.777057,1,187500.0,-72873.16893,-81242.198496,-92310.424722,-91179.828784,-67854.509396,-187500.022352,-187500.022352,187500.0,-65712.564076,187500.0,187500.0,-77633.84463,-74792.624985,-79686.628841,-122885.152445
1679630793.777076,1,187500.0,-72420.367291,-81231.313197,-92314.269223,-91185.081444,-67861.48314,-187500.022352,-187500.022352,187500.0,-65697.677815,187500.0,187500.0,-77616.298511,-74797.095334,-79694.675469,-122877.441094
1679630793.777095,1,187500.0,-72298.215008,-81235.828249,-92293.795025,-91170.821031,-67852.475387,-187500.022352,-187500.022352,187500.0,-65691.419326,187500.0,187500.0,-77619.986548,-74795.083677,-79693.714344,-122851.155442
1679630793.777113,1,187500.0,-72238.424091,-81202.322984,-92274.483117,-91150.68211,-67835.644524,-187500.022352,-187500.022352,187500.0,-65663.993736,187500.0,187500.0,-77599.042964,-74779.929194,-79752.410025,-122915.014376
1679630793.777132,1,187500.0,-71922.146907,-81201.428914,-92266.660007,-91146.949368,-67827.888468,-187500.022352,-187500.022352,187500.0,-65639.138596,187500.0,187500.0,-77578.993449,-74763.031276,-79724.649158,-122960.410769
1679630793.777177,1,187500.0,-72149.262983,-81197.830283,-92255.975873,-91139.349775,-67812.01873,-187500.022352,-187500.022352,187500.0,-65637.663381,187500.0,187500.0,-77592.784475,-74750.201374,-79776.05817,-123068.526157
1679630793.777196,1,187500.0,-71922.392776,-81185.2239,-92261.563809,-91136.667566,-67817.561962,-187500.022352,-187500.022352,187500.0,-65615.468099,187500.0,187500.0,-77562.721379,-74732.699958,-79797.337031,-123224.317816
1679630793.777215,1,187500.0,-72003.462553,-81197.740876,-92253.673643,-91121.446028,-67806.810773,-187500.022352,-187500.022352,187500.0,-65626.062825,187500.0,187500.0,-77577.808807,-74754.828185,-79802.097953,-123341.217439
1679630793.777234,1,187500.0,-72146.67018,-81187.302612,-92261.519106,-91124.619976,-67815.639712,-187500.022352,-187500.022352,187500.0,-65607.779098,187500.0,187500.0,-77560.441501,-74726.910857,-79871.477767,-123563.863166
1679630793.777254,1,187500.0,-72015.644254,-81190.789484,-92257.09346,-91120.551958,-67809.113003,-187500.022352,-187500.022352,187500.0,-65611.690654,187500.0,187500.0,-77562.520213,-74754.24704,-79850.154203,-123728.372005
1679630793.777273,1,187500.0,-72409.861971,-81174.360952,-92225.018707,-91094.556879,-67782.894407,-187500.022352,-187500.022352,187500.0,-65601.654721,187500.0,187500.0,-77563.324876,-74733.951656,-79899.976242,-123967.736836
1679630793.777292,1,187500.0,-72318.018653,-81144.879001,-92210.892404,-91084.275077,-67773.551377,-187500.022352,-187500.022352,187500.0,-65562.941499,187500.0,187500.0,-77513.033451,-74690.164589,-79902.457285,-124225.45245
1679630793.777311,1,187500.0,-72502.621711,-81136.474745,-92183.936201,-91060.828097,-67751.512557,-187500.022352,-187500.022352,187500.0,-65561.689801,187500.0,187500.0,-77510.977091,-74694.165551,-79881.401942,-124431.982569
1679630793.77733,1,187500.0,-72745.786339,-81108.937396,-92171.821555,-91049.249893,-67734.63699,-187500.022352,-187500.022352,187500.0,-65523.401263,187500.0,187500.0,-77483.685611,-74654.17828,-79916.941216,-124732.166497
1679630793.777349,1,187500.0,-72629.601971,-81118.481591,-92174.481413,-91055.128402,-67747.95863,-187500.022352,-187500.022352,187500.0,-65533.683066,187500.0,187500.0,-77496.001422,-74677.312336,-79868.996724,-124936.439089
1679630793.777368,1,187500.0,-73054.776854,-81099.77318,-92152.889628,-91038.051669,-67720.220115,-187500.022352,-187500.022352,187500.0,-65519.422653,187500.0,187500.0,-77481.405733,-74659.587402,-79915.175428,-125230.990378
1679630793.777417,1,187500.0,-73000.372708,-81085.646878,-92150.341529,-91037.694041,-67720.957723,-187500.022352,-187500.022352,187500.0,-65501.585961,187500.0,187500.0,-77466.430064,-74633.346454,-79912.694384,-125533.878867
1679630793.777436,1,187500.0,-73196.352803,-81089.13375,-92141.736107,-91031.90494,-67717.180278,-187500.022352,-187500.022352,187500.0,-65498.568475,187500.0,187500.0,-77461.37857,-74634.687559,-79889.761494,-125786.788855
1679630793.777455,1,187500.0,-73466.138359,-81067.072578,-92136.639909,-91019.767942,-67714.00633,-187500.022352,-187500.022352,187500.0,-65477.937815,187500.0,187500.0,-77453.868384,-74620.583608,-79935.604922,-126116.901769
1679630793.777474,1,187500.0,-73388.622509,-81072.638163,-92140.506761,-91023.143056,-67712.665226,-187500.022352,-187500.022352,187500.0,-65477.826056,187500.0,187500.0,-77453.130776,-74619.868352,-79877.53509,-126351.416272
1679630793.777493,1,187500.0,-73851.616544,-81068.659552,-92134.382383,-91011.40839,-67700.483525,-187500.022352,-187500.022352,187500.0,-65473.221597,187500.0,187500.0,-77449.33098,-74609.58655,-79901.630271,-126626.521543
1679630793.777512,1,187500.0,-73850.051922,-81071.878203,-92152.263779,-91026.719335,-67720.175412,-187500.022352,-187500.022352,187500.0,-65482.60933,187500.0,187500.0,-77457.712884,-74623.981073,-79835.782032,-126779.832158
1679630793.77753,1,187500.0,-74194.358193,-81082.249413,-92137.891607,-91022.29369,-67707.881952,-187500.022352,-187500.022352,187500.0,-65492.377042,187500.0,187500.0,-77457.757587,-74644.209402,-79763.071807,-126847.222668
1679630793.777549,1,187500.0,-74712.47163,-81075.745055,-92145.155924,-91029.647413,-67717.381444,-187500.022352,-187500.022352,187500.0,-65473.243949,187500.0,187500.0,-77455.23184,-74607.843114,-79746.307998,-126962.669428
1679630793.777568,1,187500.0,-74934.871487,-81104.847026,-92169.094642,-91052.915579,-67742.437749,-187500.022352,-187500.022352,187500.0,-65501.653016,187500.0,187500.0,-77476.555404,-74662.649591,-79671.988448,-126981.757817
1679630793.777587,1,187500.0,-75722.01052,-81086.585651,-92146.474677,-91027.255777,-67720.264819,-187500.022352,-187500.022352,187500.0,-65492.444097,187500.0,187500.0,-77477.248308,-74642.823594,-79736.7191,-127141.908067
1679630793.777606,1,187500.0,-76033.705596,-81065.351494,-92147.368747,-91015.141131,-67716.755595,-187500.022352,-187500.022352,187500.0,-65475.635585,187500.0,187500.0,-77447.744006,-74620.248332,-79761.440129,-127369.694694
1679630793.777649,1,187500.0,-76521.331253,-81061.484642,-92123.228863,-90992.074131,-67678.712926,-187500.022352,-187500.022352,187500.0,-65477.557835,187500.0,187500.0,-77447.118157,-74628.451422,-79741.748243,-127533.041243
1679630793.777669,1,187500.0,-77027.240637,-81045.05611,-92121.172502,-90985.681532,-67687.363051,-187500.022352,-187500.022352,187500.0,-65447.584146,187500.0,187500.0,-77425.928703,-74572.125026,-79766.536327,-127751.171917
1679630793.777688,1,187500.0,-77089.28908,-81061.574049,-92136.684613,-91007.56389,-67709.088946,-187500.022352,-187500.022352,187500.0,-65465.264376,187500.0,187500.0,-77433.103613,-74601.249349,-79708.131219,-127874.866471
1679630793.777707,1,187500.0,-77626.513258,-81074.471006,-92145.4912,-91012.458922,-67714.810993,-187500.022352,-187500.022352,187500.0,-65478.586016,187500.0,187500.0,-77449.062759,-74631.647722,-79747.22442,-128045.477336
1679630793.777726,1,187500.0,-77736.774413,-81063.541003,-92145.602959,-91011.251928,-67715.727415,-187500.022352,-187500.022352,187500.0,-65481.84937,187500.0,187500.0,-77448.235744,-74624.58457,-79748.520821,-128202.453637
1679630793.777744,1,187500.0,-78055.532641,-81068.234869,-92132.795409,-91003.182948,-67707.479621,-187500.022352,-187500.022352,187500.0,-65491.013585,187500.0,187500.0,-77445.262962,-74605.138553,-79733.567504,-128330.99852
1679630793.777763,1,187500.0,-78504.422725,-81043.178563,-92120.546653,-90983.848689,-67691.788696,-187500.022352,-187500.022352,187500.0,-65463.811512,187500.0,187500.0,-77424.587598,-74595.974338,-79777.600441,-128538.82504
1679630793.777782,1,187500.0,-78537.54801,-81055.427319,-92129.956738,-90989.011942,-67695.052051,-187500.022352,-187500.022352,187500.0,-65480.105934,187500.0,187500.0,-77434.668235,-74616.493239,-79718.502428,-128630.82482
1679630793.777802,1,187500.0,-79117.441668,-81047.850078,-92120.010211,-90980.7865,-67687.363051,-187500.022352,-187500.022352,187500.0,-65470.427629,187500.0,187500.0,-77427.068642,-74595.057916,-79755.494565,-128792.226767
1679630793.77782,1,187500.0,-79260.045798,-81027.688805,-92120.926633,-90975.802061,-67689.39706,-187500.022352,-187500.022352,187500.0,-65456.100161,187500.0,187500.0,-77414.283444,-74587.54773,-79759.808452,-128970.481929
1679630793.777862,1,187500.0,-79566.734084,-81058.243639,-92128.280357,-90987.626134,-67695.767307,-187500.022352,-187500.022352,187500.0,-65473.892149,187500.0,187500.0,-77427.04629,-74617.409661,-79756.746263,-129115.231826
1679630793.777882,1,187500.0,-80015.870037,-81030.683938,-92105.727447,-90965.587314,-67678.712926,-187500.022352,-187500.022352,187500.0,-65456.34603,187500.0,187500.0,-77424.922875,-74573.801407,-79820.605197,-129335.038881
1679630793.777901,1,187500.0,-79996.446371,-81045.145517,-92122.848883,-90983.22284,-67694.359147,-187500.022352,-187500.022352,187500.0,-65446.578317,187500.0,187500.0,-77408.159066,-74587.100695,-79786.630545,-129485.779045
1679630793.777921,1,187500.0,-80468.962248,-81040.094023,-92106.062723,-90969.610628,-67677.863559,-187500.022352,-187500.022352,187500.0,-65455.608422,187500.0,187500.0,-77427.135697,-74577.400038,-79823.376813,-129640.989559
1679630793.77794,1,187500.0,-80548.914438,-81024.42545,-92110.018982,-90969.700035,-67689.01708,-187500.022352,-187500.022352,187500.0,-65425.366512,187500.0,187500.0,-77403.062868,-74549.438006,-79831.043462,-129815.467276
1679630793.777959,1,187500.0,-80787.407552,-81047.49245,-92119.138493,-90971.666988,-67693.845057,-187500.022352,-187500.022352,187500.0,-65443.963163,187500.0,187500.0,-77427.158049,-74586.854826,-79800.890958,-129887.976335
1679630793.777978,1,187500.0,-81169.152995,-81027.711156,-92117.037429,-90965.386148,-67682.333908,-187500.022352,-187500.022352,187500.0,-65433.681361,187500.0,187500.0,-77417.926779,-74582.697401,-79847.896677,-130031.005148
1679630793.777997,1,187500.0,-81111.194922,-81032.472078,-92113.639964,-90964.559134,-67673.326155,-187500.022352,-187500.022352,187500.0,-65444.879585,187500.0,187500.0,-77421.771279,-74586.608957,-79796.9347,-130078.346143
1679630793.778017,1,187500.0,-81516.409697,-81046.777194,-92119.429066,-90978.976009,-67678.623519,-187500.022352,-187500.022352,187500.0,-65444.499605,187500.0,187500.0,-77411.712994,-74597.114277,-79820.247569,-130162.567516
1679630793.778034,1,187500.0,-81475.506005,-81018.345775,-92101.614726,-90965.229686,-67668.364068,-187500.022352,-187500.022352,187500.0,-65447.360629,187500.0,187500.0,-77419.446697,-74583.569119,-79813.407935,-130209.237958
1679630793.77805,1,187500.0,-81547.143346,-81033.097927,-92101.637078,-90968.671855,-67669.571062,-187500.022352,-187500.022352,187500.0,-65438.28582,187500.0,187500.0,-77421.078375,-74572.750875,-79769.799682,-130210.780228
1679630793.778086,1,187500.0,-81741.245895,-81020.044508,-92107.068551,-90977.679608,-67668.051144,-187500.022352,-187500.022352,187500.0,-65450.892204,187500.0,187500.0,-77412.785877,-74576.66243,-79804.064906,-130259.015293
1679630793.778103,1,187500.0,-81450.941438,-81043.044453,-92125.75461,-91006.558061,-67686.737202,-187500.022352,-187500.022352,187500.0,-65476.194379,187500.0,187500.0,-77438.020997,-74577.265927,-79740.898876,-130187.020324
1679630793.778118,1,187500.0,-81691.334449,-81029.320482,-92105.570985,-90991.448282,-67666.374763,-187500.022352,-187500.022352,187500.0,-65474.138018,187500.0,187500.0,-77441.954904,-74616.023852,-79755.695731,-130148.240047
1679630794.259147,1,187500.0,-81513.772191,-81008.242787,-92105.570985,-90986.665009,-67670.487484,-187500.022352,-187500.022352,187500.0,-65456.971879,187500.0,187500.0,-77430.421404,-74588.084172,-79746.956199,-130130.693928
1679630794.259192,1,187500.0,-81438.603275,-81023.889008,-92113.729371,-90991.001247,-67672.901472,-187500.022352,-187500.022352,187500.0,-65466.381963,187500.0,187500.0,-77428.521505,-74600.891721,-79696.48596,-130026.534799
1679630794.25923,1,187500.0,-81538.35911,-81022.63731,-92129.666165,-91009.575547,-67687.363051,-187500.022352,-187500.022352,187500.0,-65467.432495,187500.0,187500.0,-77431.494287,-74597.360146,-79725.096193,-129992.493092
1679630794.259259,1,187500.0,-81180.462978,-81045.43609,-92147.256988,-91030.563835,-67697.667205,-187500.022352,-187500.022352,187500.0,-65482.36346,187500.0,187500.0,-77466.653581,-74621.231809,-79675.922355,-129857.220335
1679630794.25928,1,187500.0,-81339.965026,-81038.596456,-92132.482485,-91013.040067,-67689.464115,-187500.022352,-187500.022352,187500.0,-65482.631681,187500.0,187500.0,-77458.718712,-74633.011178,-79696.575367,-129784.152482
1679630794.2593,1,187500.0,-81075.186262,-81048.922962,-92155.728299,-91042.477315,-67727.886764,-187500.022352,-187500.022352,187500.0,-65517.232182,187500.0,187500.0,-77463.189061,-74639.202611,-79679.744503,-129685.98362
1679630794.259323,1,187500.0,-81015.440049,-81036.47304,-92124.100581,-91022.584262,-67706.250275,-187500.022352,-187500.022352,187500.0,-65500.93776,187500.0,187500.0,-77464.105483,-74628.451422,-79664.344152,-129573.107311
1679630794.259345,1,187500.0,-81161.151071,-81025.475982,-92125.37463,-91010.089637,-67695.879065,-187500.022352,-187500.022352,187500.0,-65500.80365,187500.0,187500.0,-77453.041369,-74645.662265,-79702.610338,-129560.500927
1679630794.259423,1,187500.0,-80848.226648,-81041.435127,-92139.612691,-91033.335451,-67705.043281,-187500.022352,-187500.022352,187500.0,-65511.241914,187500.0,187500.0,-77461.177404,-74644.768196,-79647.781509,-129477.710066
1679630794.259447,1,187500.0,-81057.126052,-81058.51186,-92146.139401,-91043.729012,-67706.652606,-187500.022352,-187500.022352,187500.0,-65522.820118,187500.0,187500.0,-77470.945116,-74654.066521,-79671.139082,-129428.133896
1679630794.259468,1,187500.0,-80892.818379,-81043.759709,-92151.950854,-91038.476353,-67705.42326,-187500.022352,-187500.022352,187500.0,-65520.964923,187500.0,187500.0,-77474.208471,-74661.822577,-79678.448102,-129393.734562
1679630794.259489,1,187500.0,-80826.72427,-81055.404968,-92141.937273,-91045.226579,-67709.334816,-187500.022352,-187500.022352,187500.0,-65531.649057,187500.0,187500.0,-77489.83234,-74670.96444,-79644.182878,-129305.087543
1679630794.259522,1,187500.0,-81022.436145,-81024.984244,-92118.982031,-91022.338393,-67691.028737,-187500.022352,-187500.022352,187500.0,-65507.039786,187500.0,187500.0,-77470.431026,-74659.207423,-79690.093361,-129317.47041
1679630794.259545,1,187500.0,-80731.885818,-81032.695595,-92131.610767,-91028.507474,-67703.143382,-187500.022352,-187500.022352,187500.0,-65497.294426,187500.0,187500.0,-77451.25323,-74623.444632,-79633.074061,-129265.189679
1679630794.259565,1,187500.0,-80950.508231,-81053.63918,-92138.405697,-91046.411222,-67711.458231,-187500.022352,-187500.022352,187500.0,-65501.764775,187500.0,187500.0,-77468.464073,-74643.740015,-79647.245067,-129222.520199
1679630794.259586,1,187500.0,-80762.887688,-81049.504107,-92158.656378,-91052.714414,-67726.657418,-187500.022352,-187500.022352,187500.0,-65515.935781,187500.0,187500.0,-77487.552463,-74665.734132,-79647.379177,-129166.037341
1679630794.259606,1,187500.0,-80642.031806,-81069.285401,-92166.211267,-91050.859219,-67725.137499,-187500.022352,-187500.022352,187500.0,-65530.956153,187500.0,187500.0,-77494.660317,-74691.036307,-79607.101334,-129037.671272
1679630794.259627,1,187500.0,-80779.025648,-81041.0775,-92141.981976,-91035.458867,-67694.314443,-187500.022352,-187500.022352,187500.0,-65503.776432,187500.0,187500.0,-77474.879023,-74645.684617,-79650.575477,-129005.574167
1679630794.259681,1,187500.0,-80361.003323,-81071.542927,-92179.219983,-91083.738635,-67738.950877,-187500.022352,-187500.022352,187500.0,-65513.588847,187500.0,187500.0,-77488.334774,-74678.966365,-79593.220901,-128867.574497
1679630794.259703,1,187500.0,-80454.925353,-81068.033703,-92161.875029,-91061.342187,-67723.125842,-187500.022352,-187500.022352,187500.0,-65529.145661,187500.0,187500.0,-77503.221035,-74683.526121,-79616.980805,-128729.775993
1679630794.259724,1,187500.0,-80149.958152,-81058.645971,-92170.435747,-91072.048673,-67729.987828,-187500.022352,-187500.022352,187500.0,-65515.846374,187500.0,187500.0,-77492.00046,-74679.949841,-79611.348165,-128612.585796
1679630794.259746,1,187500.0,-79907.441724,-81084.819863,-92185.389064,-91078.083644,-67728.624371,-187500.022352,-187500.022352,187500.0,-65538.712208,187500.0,187500.0,-77514.754536,-74687.437676,-79570.869156,-128416.71746
1679630794.259767,1,187500.0,-79936.811916,-81078.807244,-92188.831233,-91083.358655,-67738.34738,-187500.022352,-187500.022352,187500.0,-65529.25742,187500.0,187500.0,-77504.159809,-74683.615528,-79632.068233,-128315.128781
1679630794.259789,1,187500.0,-79504.864455,-81080.751846,-92188.741826,-91091.427635,-67737.654476,-187500.022352,-187500.022352,187500.0,-65544.791883,187500.0,187500.0,-77508.496047,-74710.281159,-79600.842846,-128141.612189
1679630794.259811,1,187500.0,-79617.204322,-81080.908308,-92173.140308,-91079.156527,-67724.37754,-187500.022352,-187500.022352,187500.0,-65544.546013,187500.0,187500.0,-77513.301672,-74686.923586,-79636.382119,-128033.765022
1679630794.259832,1,187500.0,-79390.423523,-81079.030762,-92184.718512,-91085.169147,-67735.374598,-187500.022352,-187500.022352,187500.0,-65535.78413,187500.0,187500.0,-77505.165637,-74678.474626,-79649.189669,-127941.564076
1679630794.259853,1,187500.0,-79266.259583,-81098.253262,-92190.351151,-91089.035998,-67742.013066,-187500.022352,-187500.022352,187500.0,-65547.004705,187500.0,187500.0,-77511.111201,-74701.653385,-79633.588151,-127799.541092
1679630794.259873,1,187500.0,-79450.482661,-81088.664363,-92195.357942,-91078.865955,-67734.681694,-187500.022352,-187500.022352,187500.0,-65541.908508,187500.0,187500.0,-77517.526152,-74705.184961,-79694.876634,-127740.912466
1679630794.25989,1,187500.0,-79188.45316,-81098.700297,-92210.802997,-91092.634629,-67748.517424,-187500.022352,-187500.022352,187500.0,-65556.459493,187500.0,187500.0,-77523.494068,-74726.82145,-79658.398588,-127619.698956
1679630794.260013,1,187500.0,-79506.049097,-81088.284384,-92183.533869,-91070.059367,-67717.739072,-187500.022352,-187500.022352,187500.0,-65527.536336,187500.0,187500.0,-77508.674861,-74684.889577,-79693.982565,-127561.472662
1679630794.26003,1,187500.0,-79499.656498,-81086.563299,-92194.218003,-91079.96119,-67733.765272,-187500.022352,-187500.022352,187500.0,-65525.368217,187500.0,187500.0,-77508.116067,-74698.926473,-79713.942672,-127523.5194
1679630794.260047,1,187500.0,-79569.863328,-81091.123055,-92180.024645,-91069.589981,-67723.170545,-187500.022352,-187500.022352,187500.0,-65557.644136,187500.0,187500.0,-77520.655396,-74710.839952,-79678.358695,-127418.555608
1679630794.260064,1,187500.0,-79971.099492,-81072.369942,-92171.195706,-91056.961245,-67709.066595,-187500.022352,-187500.022352,187500.0,-65533.951287,187500.0,187500.0,-77491.508721,-74687.951766,-79730.840591,-127423.45064
1679630794.260081,1,187500.0,-79887.213396,-81077.712009,-92178.750596,-91059.911675,-67709.468926,-187500.022352,-187500.022352,187500.0,-65542.355542,187500.0,187500.0,-77491.866349,-74682.900272,-79687.031172,-127353.512031
1679630794.260098,1,187500.0,-80347.435814,-81074.471006,-92162.344415,-91043.661957,-67696.281397,-187500.022352,-187500.022352,187500.0,-65533.99599,187500.0,187500.0,-77484.154997,-74686.320089,-79702.811504,-127324.387708
1679630794.260115,1,187500.0,-80501.461685,-81059.897668,-92159.528096,-91046.120649,-67690.648757,-187500.022352,-187500.022352,187500.0,-65530.933801,187500.0,187500.0,-77480.176387,-74663.990696,-79715.730812,-127318.26333
1679630794.260132,1,187500.0,-80671.603164,-81079.00841,-92159.036357,-91050.702757,-67692.34749,-187500.022352,-187500.022352,187500.0,-65537.527566,187500.0,187500.0,-77483.372686,-74669.04219,-79672.793111,-127243.876725
1679630794.26015,1,187500.0,-81178.630135,-81056.164927,-92143.94893,-91034.676556,-67683.317385,-187500.022352,-187500.022352,187500.0,-65521.031978,187500.0,187500.0,-77469.156977,-74671.612641,-79722.861019,-127268.843623
1679630794.260168,1,187500.0,-81171.723446,-81070.023009,-92171.776852,-91057.78826,-67700.975263,-187500.022352,-187500.022352,187500.0,-65525.211754,187500.0,187500.0,-77469.58166,-74677.446446,-79677.486977,-127211.511399
1679630794.260241,1,187500.0,-81701.236272,-81057.528383,-92143.367784,-91024.931195,-67676.835379,-187500.022352,-187500.022352,187500.0,-65533.772473,187500.0,187500.0,-77479.617593,-74688.26469,-79692.686164,-127162.046988
1679630794.260259,1,187500.0,-81926.407746,-81034.215514,-92146.340566,-91030.452076,-67687.027775,-187500.022352,-187500.022352,187500.0,-65497.003853,187500.0,187500.0,-77445.933514,-74638.710873,-79697.134161,-127183.862291
1679630794.260276,1,187500.0,-82094.604623,-81063.76452,-92156.957645,-91044.041937,-67693.88976,-187500.022352,-187500.022352,187500.0,-65527.357522,187500.0,187500.0,-77473.515567,-74667.857548,-79643.31116,-127067.11913
1679630794.260292,1,187500.0,-82589.002858,-81045.346683,-92145.737069,-91029.960338,-67683.317385,-187500.022352,-187500.022352,187500.0,-65504.446984,187500.0,187500.0,-77455.880041,-74650.132614,-79689.042829,-127052.881068
1679630794.26031,1,187500.0,-82532.229427,-81068.905421,-92170.458099,-91048.959321,-67703.009272,-187500.022352,-187500.022352,187500.0,-65534.577135,187500.0,187500.0,-77481.048105,-74679.122827,-79638.907866,-126949.839526
1679630794.260327,1,187500.0,-82992.474197,-81050.68875,-92136.975186,-91023.612442,-67664.944251,-187500.022352,-187500.022352,187500.0,-65515.846374,187500.0,187500.0,-77450.716788,-74641.191917,-79657.750387,-126893.602537
1679630794.260343,1,187500.0,-83103.71883,-81037.568276,-92144.552427,-91021.466675,-67682.043336,-187500.022352,-187500.022352,187500.0,-65513.477089,187500.0,187500.0,-77449.621552,-74643.561202,-79654.799957,-126847.468537
