Timestamp,Label,EXG Channel 0 (Fp1),EXG Channel 1 (Fp2),EXG Channel 2 (C3),EXG Channel 3 (C4),EXG Channel 4 (P7),EXG Channel 5 (P8),EXG Channel 6 (O1),EXG Channel 7 (O2),EXG Channel 8 (F7),EXG Channel 9 (F8),EXG Channel 10 (F3),EXG Channel 11 (F4),EXG Channel 12 (T7),EXG Channel 13 (T8),EXG Channel 14 (P3),EXG Channel 15 (P4)
1680232936.079334,0,-66686.518989,-28680.752657,-187500.022352,-59549.204653,187500.0,-187500.022352,-187500.022352,-187500.022352,0.0,0.0,0.0,0.0,0.0,0.0,0.0,0.0
1680232936.079359,0,-66715.240981,-28377.685353,-187500.022352,-59386.461602,187500.0,-187500.022352,-187500.022352,-187500.022352,-61155.110437,-25968.033191,187500.0,-187500.022352,-21019.155803,-42500.232756,-187500.022352,-187500.022352
1680232936.079377,0,-66739.604382,-28509.672404,-187500.022352,-59445.470207,187500.0,-187500.022352,-187500.022352,-187500.022352,-60976.318833,-25323.699453,187500.0,-187500.022352,-21114.933028,-41998.257279,-187500.022352,-187500.022352
1680232936.079396,0,-66683.009766,-28606.902493,-187500.022352,-59591.270636,187500.0,-187500.022352,-187500.022352,-187500.022352,-61232.358066,-26050.689942,187500.0,-187500.022352,-21018.105271,-42593.104254,-187500.022352,-187500.022352
1680232936.079413,0,-66784.643148,-28302.203512,-187500.022352,-59360.399468,187500.0,-187500.022352,-187500.022352,-187500.022352,-61002.984465,-25620.552971,187500.0,-187500.022352,-21056.617326,-42304.565585,-187500.022352,-187500.022352
1680232936.079429,0,-66680.148742,-28669.934412,-187500.022352,-59650.435704,187500.0,-187500.022352,-187500.022352,-187500.022352,-61131.238774,-25668.922146,187500.0,-187500.022352,-21080.868969,-42326.336184,-187500.022352,-187500.022352
1680232936.079446,0,-66754.17772,-28390.336441,-187500.022352,-59470.928844,187500.0,-187500.022352,-187500.022352,-187500.022352,-61153.255242,-26080.417762,187500.0,-187500.022352,-20997.988701,-42721.470323,-187500.022352,-187500.022352
1680232936.079463,0,-66768.482836,-28493.08741,-187500.022352,-59496.63335,187500.0,-187500.022352,-187500.022352,-187500.022352,-60981.52679,-25407.339681,187500.0,-187500.022352,-21087.93212,-42186.660133,-187500.022352,-187500.022352
1680232936.079481,0,-66734.70935,-28606.880141,-187500.022352,-59611.543669,187500.0,-187500.022352,-187500.022352,-187500.022352,-61234.727351,-26089.336108,187500.0,-187500.022352,-21014.596047,-42723.973718,-187500.022352,-187500.022352
1680232936.079498,0,-66788.107668,-28304.081059,-187500.022352,-59379.152582,187500.0,-187500.022352,-187500.022352,-187500.022352,-61009.399415,-25643.441158,187500.0,-187500.022352,-21064.619251,-42402.443874,-187500.022352,-187500.022352
1680232936.079515,0,-66670.090457,-28660.390217,-187500.022352,-59667.266568,187500.0,-187500.022352,-187500.022352,-187500.022352,-61128.131882,-25661.322553,187500.0,-187500.022352,-21070.162483,-42393.257307,-187500.022352,-187500.022352
1680232936.079652,0,-66771.522674,-28368.610545,-187500.022352,-59470.481809,187500.0,-187500.022352,-187500.022352,-187500.022352,-61164.006432,-26079.031954,187500.0,-187500.022352,-20991.976081,-42789.911364,-187500.022352,-187500.022352
1680232936.079671,0,-66755.250604,-28466.220613,-187500.022352,-59513.955952,187500.0,-187500.022352,-187500.022352,-187500.022352,-61002.649188,-25395.292091,187500.0,-187500.022352,-21146.87367,-42224.523988,-187500.022352,-187500.022352
1680232936.079688,0,-66685.893141,-28600.554597,-187500.022352,-59648.71462,187500.0,-187500.022352,-187500.022352,-187500.022352,-61248.004287,-26108.044518,187500.0,-187500.022352,-21039.853518,-42799.992001,-187500.022352,-187500.022352
1680232936.079706,0,-66813.074566,-28259.221108,-187500.022352,-59380.940721,187500.0,-187500.022352,-187500.022352,-187500.022352,-60994.647264,-25643.351751,187500.0,-187500.022352,-21076.532731,-42470.504936,-187500.022352,-187500.022352
1680232936.079722,0,-66669.554015,-28626.862601,-187500.022352,-59660.24812,187500.0,-187500.022352,-187500.022352,-187500.022352,-61104.170812,-25610.405279,187500.0,-187500.022352,-21097.856295,-42403.02502,-187500.022352,-187500.022352
1680232936.079742,0,-66725.209859,-28304.259873,-187500.022352,-59457.741315,187500.0,-187500.022352,-187500.022352,-187500.022352,-61122.298076,-26021.945598,187500.0,-187500.022352,-20992.646634,-42796.929812,-187500.022352,-187500.022352
1680232936.079759,0,-66750.780255,-28405.200351,-187500.022352,-59459.529455,187500.0,-187500.022352,-187500.022352,-187500.022352,-60912.258734,-25250.162214,187500.0,-187500.022352,-21088.379155,-42165.403624,-187500.022352,-187500.022352
1680232936.079777,0,-66695.124411,-28535.935704,-187500.022352,-59596.836221,187500.0,-187500.022352,-187500.022352,-187500.022352,-61175.405821,-25967.697915,187500.0,-187500.022352,-21011.042119,-42705.28766,-187500.022352,-187500.022352
1680232936.079794,0,-66794.477915,-28217.08807,-187500.022352,-59321.194508,187500.0,-187500.022352,-187500.022352,-187500.022352,-60947.820359,-25507.542551,187500.0,-187500.022352,-21038.378303,-42352.085394,-187500.022352,-187500.022352
1680232936.079811,0,-66698.655987,-28621.609941,-187500.022352,-59596.299779,187500.0,-187500.022352,-187500.022352,-187500.022352,-61077.102849,-25475.087819,187500.0,-187500.022352,-21102.483106,-42270.590934,-187500.022352,-187500.022352
1680232936.079828,0,-66735.536365,-28304.326928,-187500.022352,-59410.445024,187500.0,-187500.022352,-187500.022352,-187500.022352,-61134.345667,-25932.40451,187500.0,-187500.022352,-21025.816622,-42658.617217,-187500.022352,-187500.022352
1680232936.079923,0,-66730.462519,-28372.700914,-187500.022352,-59446.543091,187500.0,-187500.022352,-187500.022352,-187500.022352,-60939.796083,-25198.21676,187500.0,-187500.022352,-21124.410167,-42055.365986,-187500.022352,-187500.022352
1680232936.079941,0,-66701.427603,-28537.500326,-187500.022352,-59610.694302,187500.0,-187500.022352,-187500.022352,-187500.022352,-61197.69051,-25937.321894,187500.0,-187500.022352,-21027.96239,-42625.871912,-187500.022352,-187500.022352
1680232936.079957,0,-66763.833673,-28199.206674,-187500.022352,-59367.708488,187500.0,-187500.022352,-187500.022352,-187500.022352,-60989.774584,-25524.731043,187500.0,-187500.022352,-21055.38798,-42332.862894,-187500.022352,-187500.022352
1680232936.079975,0,-66645.078855,-28600.152266,-187500.022352,-59669.322928,187500.0,-187500.022352,-187500.022352,-187500.022352,-61108.484698,-25501.194656,187500.0,-187500.022352,-21090.61433,-42273.049626,-187500.022352,-187500.022352
1680232936.182445,0,-35343.673568,-15627.177432,-93750.011176,-31719.02528,93749.988824,-93750.011176,-93750.011176,-93750.011176,-30627.902523,-13086.052309,93749.988824,-93750.011176,-10493.160545,-21431.411377,-93750.011176,-93750.011176
1680232936.259788,0,-70621.40949,-31540.524249,-187500.022352,-63686.221979,187500.0,-187500.022352,-187500.022352,-187500.022352,-61669.737002,-24904.559541,187500.0,-187500.022352,-20582.536826,-27874.033496,-187500.022352,-187500.022352
1680232936.259832,0,-70681.580386,-31261.08274,-187500.022352,-63439.32461,187500.0,-187500.022352,-187500.022352,-187500.022352,-61684.466801,-25273.229214,187500.0,-187500.022352,-20530.099634,-28188.790761,-187500.022352,-187500.022352
1680232936.259855,0,-70661.240299,-31415.063908,-187500.022352,-63528.016332,187500.0,-187500.022352,-187500.022352,-187500.022352,-61509.787918,-24496.617853,187500.0,-187500.022352,-20614.008083,-27518.864276,-187500.022352,-187500.022352
1680232936.259877,0,-70603.036356,-31428.005568,-187500.022352,-63614.98697,187500.0,-187500.022352,-187500.022352,-187500.022352,-61777.293596,-25350.812119,187500.0,-187500.022352,-20528.400901,-28179.514787,-187500.022352,-187500.022352
1680232936.2599,0,-70700.579369,-31182.963393,-187500.022352,-63364.759191,187500.0,-187500.022352,-187500.022352,-187500.022352,-61483.323453,-24716.469612,187500.0,-187500.022352,-20533.295933,-27684.535406,-187500.022352,-187500.022352
1680232936.259992,0,-70646.286982,-31558.159776,-187500.022352,-63645.586508,187500.0,-187500.022352,-187500.022352,-187500.022352,-61655.722458,-24846.266192,187500.0,-187500.022352,-20581.709812,-27710.508133,-187500.022352,-187500.022352
1680232936.286898,0,-70715.33152,-31268.324705,-187500.022352,-63401.885438,187500.0,-187500.022352,-187500.022352,-187500.022352,-61687.283121,-25229.017464,187500.0,-187500.022352,-20567.918786,-28024.617198,-187500.022352,-187500.022352
1680232936.518844,0,-70665.420075,-31395.886111,-187500.022352,-63501.641274,187500.0,-187500.022352,-187500.022352,-187500.022352,-61516.381683,-24447.823995,187500.0,-187500.022352,-20635.197536,-27355.54008,-187500.022352,-187500.022352
1680232936.518903,0,-70624.628141,-31433.682911,-187500.022352,-63584.208618,187500.0,-187500.022352,-187500.022352,-187500.022352,-61778.098259,-25319.989064,187500.0,-187500.022352,-20540.627306,-28035.502498,-187500.022352,-187500.022352
1680232936.518934,0,-70699.95352,-31200.263643,-187500.022352,-63330.002228,187500.0,-187500.022352,-187500.022352,-187500.022352,-61489.269017,-24707.059527,187500.0,-187500.022352,-20553.166634,-27564.484187,-187500.022352,-187500.022352
1680232936.518958,0,-70654.758293,-31578.544566,-187500.022352,-63619.278505,187500.0,-187500.022352,-187500.022352,-187500.022352,-61656.951804,-24826.976636,187500.0,-187500.022352,-20612.711681,-27580.376277,-187500.022352,-187500.022352
1680232936.51898,0,-70689.112924,-31243.603676,-187500.022352,-63397.325682,187500.0,-187500.022352,-187500.022352,-187500.022352,-61682.924531,-25252.531499,187500.0,-187500.022352,-20511.502983,-27971.777674,-187500.022352,-187500.022352
1680232936.519001,0,-70670.73979,-31401.228178,-187500.022352,-63477.099058,187500.0,-187500.022352,-187500.022352,-187500.022352,-61489.246665,-24447.555774,187500.0,-187500.022352,-20609.761251,-27282.628689,-187500.022352,-187500.022352
1680232936.519023,0,-70611.105336,-31422.574094,-187500.022352,-63587.449621,187500.0,-187500.022352,-187500.022352,-187500.022352,-61752.281994,-25343.994837,187500.0,-187500.022352,-20498.986006,-27998.152733,-187500.022352,-187500.022352
1680232936.519044,0,-70712.023462,-31195.569777,-187500.022352,-63305.772937,187500.0,-187500.022352,-187500.022352,-187500.022352,-61464.547988,-24711.932208,187500.0,-187500.022352,-20508.820773,-27513.544561,-187500.022352,-187500.022352
1680232936.519065,0,-70647.739845,-31568.709799,-187500.022352,-63602.469993,187500.0,-187500.022352,-187500.022352,-187500.022352,-61636.634068,-24801.316834,187500.0,-187500.022352,-20589.868199,-27502.212227,-187500.022352,-187500.022352
1680232936.519248,0,-70673.600814,-31240.720301,-187500.022352,-63376.605615,187500.0,-187500.022352,-187500.022352,-187500.022352,-61645.105379,-25234.583048,187500.0,-187500.022352,-20512.821735,-27898.151028,-187500.022352,-187500.022352
1680232936.519269,0,-70707.798983,-31388.308869,-187500.022352,-63437.178843,187500.0,-187500.022352,-187500.022352,-187500.022352,-61444.945508,-24405.08746,187500.0,-187500.022352,-20594.360899,-27194.719278,-187500.022352,-187500.022352
1680232936.519292,0,-70635.513441,-31432.833544,-187500.022352,-63540.510957,187500.0,-187500.022352,-187500.022352,-187500.022352,-61729.662029,-25267.194243,187500.0,-187500.022352,-20542.393093,-27848.641914,-187500.022352,-187500.022352
1680232936.519313,0,-70679.32286,-31152.520317,-187500.022352,-63285.745774,187500.0,-187500.022352,-187500.022352,-187500.022352,-61437.636487,-24640.116053,187500.0,-187500.022352,-20551.467902,-27369.353458,-187500.022352,-187500.022352
1680232936.519334,0,-70637.972133,-31545.218115,-187500.022352,-63568.696507,187500.0,-187500.022352,-187500.022352,-187500.022352,-61584.196876,-24716.469612,187500.0,-187500.022352,-20575.004289,-27352.813167,-187500.022352,-187500.022352
1680232936.519359,0,-70717.946675,-31259.249897,-187500.022352,-63318.24521,187500.0,-187500.022352,-187500.022352,-187500.022352,-61608.515574,-25148.729998,187500.0,-187500.022352,-20514.855744,-27720.007625,-187500.022352,-187500.022352
1680232936.51938,0,-70645.795243,-31365.174814,-187500.022352,-63392.341243,187500.0,-187500.022352,-187500.022352,-187500.022352,-61409.09331,-24319.189706,187500.0,-187500.022352,-20611.616446,-27002.360165,-187500.022352,-187500.022352
1680232936.519402,0,-70626.170412,-31440.477841,-187500.022352,-63493.080556,187500.0,-187500.022352,-187500.022352,-187500.022352,-61674.229702,-25207.090402,187500.0,-187500.022352,-20525.495175,-27694.414877,-187500.022352,-187500.022352
1680232936.519423,0,-70702.903951,-31188.081943,-187500.022352,-63221.953895,187500.0,-187500.022352,-187500.022352,-187500.022352,-61397.69392,-24597.938311,187500.0,-187500.022352,-20565.661259,-27216.534581,-187500.022352,-187500.022352
1680232936.519444,0,-70603.751612,-31527.202609,-187500.022352,-63546.590632,187500.0,-187500.022352,-187500.022352,-187500.022352,-61554.759628,-24668.748637,187500.0,-187500.022352,-20588.147114,-27194.831037,-187500.022352,-187500.022352
1680232936.519493,0,-70682.586215,-31226.146963,-187500.022352,-63328.303495,187500.0,-187500.022352,-187500.022352,-187500.022352,-61570.450553,-25156.284887,187500.0,-187500.022352,-20520.667198,-27634.802775,-187500.022352,-187500.022352
1680232936.519514,0,-70674.047848,-31384.285555,-187500.022352,-63414.536526,187500.0,-187500.022352,-187500.022352,-187500.022352,-61396.79985,-24333.316008,187500.0,-187500.022352,-20625.809804,-26938.970618,-187500.022352,-187500.022352
1680232936.519536,0,-70626.01395,-31487.841187,-187500.022352,-63551.887995,187500.0,-187500.022352,-187500.022352,-187500.022352,-61691.909932,-25264.959069,187500.0,-187500.022352,-20549.724466,-27666.050514,-187500.022352,-187500.022352
1680232936.519557,0,-70638.083892,-31170.379361,-187500.022352,-63336.193661,187500.0,-187500.022352,-187500.022352,-187500.022352,-61428.606382,-24713.228609,187500.0,-187500.022352,-20548.316306,-27277.890119,-187500.022352,-187500.022352
1680232936.519578,0,-70609.898342,-31556.885726,-187500.022352,-63663.758476,187500.0,-187500.022352,-187500.022352,-187500.022352,-61567.768343,-24794.767773,187500.0,-187500.022352,-20583.4756,-27302.365279,-187500.022352,-187500.022352
1680232936.519598,0,-70637.882726,-31228.650359,-187500.022352,-63476.60732,187500.0,-187500.022352,-187500.022352,-187500.022352,-61612.538888,-25333.914201,187500.0,-187500.022352,-20532.513622,-27799.713945,-187500.022352,-187500.022352
1680232936.51962,0,-70653.975982,-31384.866701,-187500.022352,-63541.136806,187500.0,-187500.022352,-187500.022352,-187500.022352,-61415.798833,-24499.791801,187500.0,-187500.022352,-20640.383141,-27112.509562,-187500.022352,-187500.022352
1680232936.519642,0,-70583.880911,-31453.039521,-187500.022352,-63706.807936,187500.0,-187500.022352,-187500.022352,-187500.022352,-61699.487173,-25445.784682,187500.0,-187500.022352,-20542.72837,-27884.181188,-187500.022352,-187500.022352
1680232936.519662,0,-70627.891496,-31170.178195,-187500.022352,-63464.492674,187500.0,-187500.022352,-187500.022352,-187500.022352,-61426.415911,-24900.715041,187500.0,-187500.022352,-20553.837187,-27526.329759,-187500.022352,-187500.022352
1680232936.519684,0,-70579.477618,-31546.290999,-187500.022352,-63776.94771,187500.0,-187500.022352,-187500.022352,-187500.022352,-61569.198855,-24959.902461,187500.0,-187500.022352,-20588.571797,-27546.267515,-187500.022352,-187500.022352
1680232936.519704,0,-70619.531944,-31224.202362,-187500.022352,-63570.864626,187500.0,-187500.022352,-187500.022352,-187500.022352,-61599.306655,-25496.657252,187500.0,-187500.022352,-20502.137602,-28063.285716,-187500.022352,-187500.022352
1680232936.519753,0,-70632.585363,-31366.828843,-187500.022352,-63630.387322,187500.0,-187500.022352,-187500.022352,-187500.022352,-61385.333405,-24638.193803,187500.0,-187500.022352,-20598.294806,-27378.160045,-187500.022352,-187500.022352
1680232936.519774,0,-70623.532906,-31466.450568,-187500.022352,-63780.166361,187500.0,-187500.022352,-187500.022352,-187500.022352,-61682.723365,-25560.247965,187500.0,-187500.022352,-20527.305666,-28144.646066,-187500.022352,-187500.022352
1680232936.519795,0,-70639.60381,-31159.583468,-187500.022352,-63515.007617,187500.0,-187500.022352,-187500.022352,-187500.022352,-61414.211859,-24994.033574,187500.0,-187500.022352,-20559.201605,-27782.078419,-187500.022352,-187500.022352
1680232936.6766,0,-70582.405696,-31535.338644,-187500.022352,-63824.936905,187500.0,-187500.022352,-187500.022352,-187500.022352,-61528.630439,-25009.769202,187500.0,-187500.022352,-20584.481428,-27777.98805,-187500.022352,-187500.022352
1680232936.676638,0,-70641.079025,-31221.117821,-187500.022352,-63591.137658,187500.0,-187500.022352,-187500.022352,-187500.022352,-61568.058916,-25539.639657,187500.0,-187500.022352,-20543.398922,-28290.357088,-187500.022352,-187500.022352
1680232936.67666,0,-70666.560014,-31375.836596,-187500.022352,-63636.310534,187500.0,-187500.022352,-187500.022352,-187500.022352,-61366.267367,-24638.104396,187500.0,-187500.022352,-20654.822368,-27560.818501,-187500.022352,-187500.022352
1680232936.676683,0,-70576.013097,-31449.552649,-187500.022352,-63809.290684,187500.0,-187500.022352,-187500.022352,-187500.022352,-61666.741868,-25580.252776,187500.0,-187500.022352,-20575.317213,-28337.206344,-187500.022352,-187500.022352
1680232936.676704,0,-70670.002183,-31167.116006,-187500.022352,-63525.870565,187500.0,-187500.022352,-187500.022352,-187500.022352,-61393.000054,-25027.047101,187500.0,-187500.022352,-20548.62923,-27995.403468,-187500.022352,-187500.022352
1680232936.676724,0,-70592.419278,-31543.698197,-187500.022352,-63858.509226,187500.0,-187500.022352,-187500.022352,-187500.022352,-61533.659581,-25041.419273,187500.0,-187500.022352,-20614.008083,-27971.934136,-187500.022352,-187500.022352
1680232936.676745,0,-70657.529909,-31254.690141,-187500.022352,-63649.140435,187500.0,-187500.022352,-187500.022352,-187500.022352,-61593.629312,-25623.816326,187500.0,-187500.022352,-20550.976163,-28541.613047,-187500.022352,-187500.022352
1680232936.676766,0,-70639.067368,-31374.897823,-187500.022352,-63707.098509,187500.0,-187500.022352,-187500.022352,-187500.022352,-61392.553019,-24739.38015,187500.0,-187500.022352,-20644.540566,-27847.367865,-187500.022352,-187500.022352
1680232936.676853,0,-70605.271531,-31476.419446,-187500.022352,-63865.952357,187500.0,-187500.022352,-187500.022352,-187500.022352,-61669.401725,-25694.045507,187500.0,-187500.022352,-20542.594259,-28656.366903,-187500.022352,-187500.022352
1680232936.676874,0,-70680.239282,-31180.907033,-187500.022352,-63577.503094,187500.0,-187500.022352,-187500.022352,-187500.022352,-61418.615153,-25134.290771,187500.0,-187500.022352,-20578.22294,-28288.747762,-187500.022352,-187500.022352
1680232936.676894,0,-70546.307629,-31540.993636,-187500.022352,-63927.75493,187500.0,-187500.022352,-187500.022352,-187500.022352,-61539.448683,-25128.367559,187500.0,-187500.022352,-20610.297693,-28279.605899,-187500.022352,-187500.022352
1680232936.676915,0,-70607.014967,-31208.869065,-187500.022352,-63714.519288,187500.0,-187500.022352,-187500.022352,-187500.022352,-61576.44082,-25720.062938,187500.0,-187500.022352,-20501.109421,-28880.800769,-187500.022352,-187500.022352
1680232936.676936,0,-70621.029511,-31331.133107,-187500.022352,-63746.32582,187500.0,-187500.022352,-187500.022352,-187500.022352,-61368.323728,-24784.553025,187500.0,-187500.022352,-20596.752536,-28152.446825,-187500.022352,-187500.022352
1680232936.676964,0,-70574.023792,-31458.672161,-187500.022352,-63913.315703,187500.0,-187500.022352,-187500.022352,-187500.022352,-61667.255958,-25726.611999,187500.0,-187500.022352,-20547.444588,-28937.216572,-187500.022352,-187500.022352
1680232936.676985,0,-70694.589102,-31181.152902,-187500.022352,-63604.48165,187500.0,-187500.022352,-187500.022352,-187500.022352,-61429.589859,-25177.295527,187500.0,-187500.022352,-20565.92948,-28579.32044,-187500.022352,-187500.022352
1680232936.677006,0,-70623.823479,-31579.148064,-187500.022352,-63941.277735,187500.0,-187500.022352,-187500.022352,-187500.022352,-61565.443762,-25133.374349,187500.0,-187500.022352,-20639.958458,-28500.932872,-187500.022352,-187500.022352
1680232936.677027,0,-70636.720435,-31266.156586,-187500.022352,-63742.749541,187500.0,-187500.022352,-187500.022352,-187500.022352,-61631.046132,-25754.439921,187500.0,-187500.022352,-20524.422291,-29110.643758,-187500.022352,-187500.022352
1680232936.677048,0,-70652.03138,-31359.87745,-187500.022352,-63763.804884,187500.0,-187500.022352,-187500.022352,-187500.022352,-61409.875621,-24778.741572,187500.0,-187500.022352,-20624.423996,-28323.929408,-187500.022352,-187500.022352
1680232936.677182,0,-70626.125708,-31493.876158,-187500.022352,-63941.478901,187500.0,-187500.022352,-187500.022352,-187500.022352,-61691.217028,-25730.970589,187500.0,-187500.022352,-20535.128776,-29114.77883,-187500.022352,-187500.022352
1680232936.677204,0,-70745.484024,-31215.127553,-187500.022352,-63614.517583,187500.0,-187500.022352,-187500.022352,-187500.022352,-61454.087371,-25165.002068,187500.0,-187500.022352,-20598.004234,-28721.902218,-187500.022352,-187500.022352
1680232937.039994,0,-70617.274418,-31589.496921,-187500.022352,-63981.242654,187500.0,-187500.022352,-187500.022352,-187500.022352,-61603.687597,-25101.545465,187500.0,-187500.022352,-20639.131443,-28604.913188,-187500.022352,-187500.022352
1680232937.040044,0,-70645.839947,-31280.372295,-187500.022352,-63787.83301,187500.0,-187500.022352,-187500.022352,-187500.022352,-61661.578615,-25776.903424,187500.0,-187500.022352,-20500.193,-29258.455844,-187500.022352,-187500.022352
1680232937.040072,0,-70635.6252,-31377.065942,-187500.022352,-63834.592859,187500.0,-187500.022352,-187500.022352,-187500.022352,-61444.900804,-24785.312985,187500.0,-187500.022352,-20606.699062,-28461.549099,-187500.022352,-187500.022352
1680232937.040102,0,-70567.854711,-31511.690499,-187500.022352,-64053.103513,187500.0,-187500.022352,-187500.022352,-187500.022352,-61744.592994,-25780.233834,187500.0,-187500.022352,-20514.386358,-29307.830847,-187500.022352,-187500.022352
1680232937.04012,0,-70677.244148,-31188.238405,-187500.022352,-63760.116847,187500.0,-187500.022352,-187500.022352,-187500.022352,-61528.585735,-25243.635505,187500.0,-187500.022352,-20571.070382,-28969.358381,-187500.022352,-187500.022352
1680232937.040138,0,-70588.060688,-31600.471628,-187500.022352,-64138.867156,187500.0,-187500.022352,-187500.022352,-187500.022352,-61692.178153,-25211.627807,187500.0,-187500.022352,-20597.199571,-28898.860979,-187500.022352,-187500.022352
1680232937.040156,0,-70575.186083,-31257.573516,-187500.022352,-63981.622634,187500.0,-187500.022352,-187500.022352,-187500.022352,-61858.341021,-25957.036132,187500.0,-187500.022352,-20510.944189,-29626.253799,-187500.022352,-187500.022352
1680232937.04018,0,-70592.687499,-31374.629602,-187500.022352,-64035.959725,187500.0,-187500.022352,-187500.022352,-187500.022352,-61848.148626,-24981.628356,187500.0,-187500.022352,-20589.37646,-28861.488862,-187500.022352,-187500.022352
1680232937.040198,0,-70457.750017,-31489.741086,-187500.022352,-64306.371129,187500.0,-187500.022352,-187500.022352,-187500.022352,-62517.873945,-26040.274029,187500.0,-187500.022352,-20490.402936,-29779.720876,-187500.022352,-187500.022352
1680232937.040297,0,-70503.14641,-31131.062642,-187500.022352,-64048.789626,187500.0,-187500.022352,-187500.022352,-187500.022352,-62906.704892,-25561.544366,187500.0,-187500.022352,-20462.329145,-29553.387112,-187500.022352,-187500.022352
1680232937.040314,0,-70441.679113,-31546.313351,-187500.022352,-64446.315401,187500.0,-187500.022352,-187500.022352,-187500.022352,-63639.84211,-25544.445282,187500.0,-187500.022352,-20528.982047,-29546.234554,-187500.022352,-187500.022352
1680232937.040332,0,-70528.336826,-31254.243106,-187500.022352,-64256.973774,187500.0,-187500.022352,-187500.022352,-187500.022352,-63944.585794,-26326.376358,187500.0,-187500.022352,-20404.058147,-30327.942112,-187500.022352,-187500.022352
1680232937.04035,0,-70532.069568,-31369.198128,-187500.022352,-64302.124298,187500.0,-187500.022352,-187500.022352,-187500.022352,-64067.587443,-25343.637209,187500.0,-187500.022352,-20573.551425,-29556.248135,-187500.022352,-187500.022352
1680232937.040367,0,-70418.388595,-31500.782847,-187500.022352,-64552.955574,187500.0,-187500.022352,-187500.022352,-187500.022352,-64168.170293,-26415.336301,187500.0,-187500.022352,-20485.820828,-30487.958251,-187500.022352,-187500.022352
1680232937.040384,0,-70527.286294,-31178.805969,-187500.022352,-64231.761006,187500.0,-187500.022352,-187500.022352,-187500.022352,-63890.069889,-25910.119821,187500.0,-187500.022352,-20462.217386,-30216.295149,-187500.022352,-187500.022352
1680232937.040402,0,-70473.93268,-31613.681509,-187500.022352,-64581.185827,187500.0,-187500.022352,-187500.022352,-187500.022352,-63968.256291,-25821.673968,187500.0,-187500.022352,-20531.597201,-30123.893037,-187500.022352,-187500.022352
1680232937.040419,0,-70530.236725,-31284.239147,-187500.022352,-64363.971575,187500.0,-187500.022352,-187500.022352,-187500.022352,-63767.783495,-26539.880221,187500.0,-187500.022352,-20462.932642,-30851.375264,-187500.022352,-187500.022352
1680232937.040437,0,-70577.220091,-31401.809323,-187500.022352,-64342.111569,187500.0,-187500.022352,-187500.022352,-187500.022352,-63683.986805,-25425.511649,187500.0,-187500.022352,-20584.235559,-29954.422111,-187500.022352,-187500.022352
1680232937.040454,0,-70476.681945,-31533.10347,-187500.022352,-64551.458007,187500.0,-187500.022352,-187500.022352,-187500.022352,-63664.876063,-26385.742591,187500.0,-187500.022352,-20485.664366,-30768.047961,-187500.022352,-187500.022352
1680232937.040494,0,-70587.233673,-31188.931309,-187500.022352,-64183.995328,187500.0,-187500.022352,-187500.022352,-187500.022352,-63415.765871,-25781.060848,187500.0,-187500.022352,-20495.700299,-30378.702924,-187500.022352,-187500.022352
1680232937.040511,0,-70540.160899,-31678.27805,-187500.022352,-64528.927449,187500.0,-187500.022352,-187500.022352,-187500.022352,-63537.582879,-25585.572491,187500.0,-187500.022352,-20595.634949,-30148.479956,-187500.022352,-187500.022352
1680232937.040528,0,-70568.815836,-31339.962046,-187500.022352,-64350.784046,187500.0,-187500.022352,-187500.022352,-187500.022352,-63420.213869,-26339.608591,187500.0,-187500.022352,-20511.905314,-30883.450017,-187500.022352,-187500.022352
1680232937.040546,0,-70577.533016,-31450.33496,-187500.022352,-64374.946281,187500.0,-187500.022352,-187500.022352,-187500.022352,-63369.676574,-25244.507223,187500.0,-187500.022352,-20606.67671,-29994.364678,-187500.022352,-187500.022352
1680232937.040563,0,-70483.052192,-31603.44441,-187500.022352,-64670.123419,187500.0,-187500.022352,-187500.022352,-187500.022352,-63430.383912,-26329.751471,187500.0,-187500.022352,-20543.175404,-30909.713317,-187500.022352,-187500.022352
1680232937.04058,0,-70557.125873,-31266.380103,-187500.022352,-64393.721747,187500.0,-187500.022352,-187500.022352,-187500.022352,-63219.025817,-25883.253024,187500.0,-187500.022352,-20568.589338,-30653.852898,-187500.022352,-187500.022352
1680232937.040599,0,-70450.798625,-31716.566588,-187500.022352,-64860.873206,187500.0,-187500.022352,-187500.022352,-187500.022352,-63326.627115,-25862.175329,187500.0,-187500.022352,-20591.701042,-30626.58377,-187500.022352,-187500.022352
1680232937.040617,0,-70436.806433,-31407.106686,-187500.022352,-64782.239769,187500.0,-187500.022352,-187500.022352,-187500.022352,-63202.507878,-26837.203126,187500.0,-187500.022352,-20495.588541,-31571.637877,-187500.022352,-187500.022352
1680232937.040634,0,-70430.145613,-31511.131705,-187500.022352,-64893.283235,187500.0,-187500.022352,-187500.022352,-187500.022352,-63103.266132,-25912.80203,187500.0,-187500.022352,-20583.565007,-30913.401355,-187500.022352,-187500.022352
1680232937.040652,0,-70331.797937,-31704.206074,-187500.022352,-65269.485446,187500.0,-187500.022352,-187500.022352,-187500.022352,-63196.539962,-27213.382985,187500.0,-187500.022352,-20497.935474,-32099.630785,-187500.022352,-187500.022352
1680232937.040668,0,-70428.402177,-31333.390633,-187500.022352,-64983.874856,187500.0,-187500.022352,-187500.022352,-187500.022352,-62951.028401,-26852.312905,187500.0,-187500.022352,-20502.62934,-32026.02649,-187500.022352,-187500.022352
1680232937.040707,0,-70277.460847,-31773.697647,-187500.022352,-65451.74157,187500.0,-187500.022352,-187500.022352,-187500.022352,-63058.160312,-26821.199277,187500.0,-187500.022352,-20540.604954,-32085.772703,-187500.022352,-187500.022352
1680232937.040725,0,-70271.247062,-31427.714995,-187500.022352,-65355.070276,187500.0,-187500.022352,-187500.022352,-187500.022352,-62927.871994,-27817.416527,187500.0,-187500.022352,-20419.324388,-33162.344475,-187500.022352,-187500.022352
1680232937.040742,0,-70231.528012,-31492.222129,-187500.022352,-65463.208015,187500.0,-187500.022352,-187500.022352,-187500.022352,-62824.115196,-26856.626792,187500.0,-187500.022352,-20490.112363,-32543.290561,-187500.022352,-187500.022352
1680232937.040759,0,-70174.508712,-31703.535521,-187500.022352,-65859.280927,187500.0,-187500.022352,-187500.022352,-187500.022352,-62992.267369,-28189.193092,187500.0,-187500.022352,-20416.418662,-33846.2408,-187500.022352,-187500.022352
1680232937.040778,0,-70294.8058,-31331.826011,-187500.022352,-65579.258273,187500.0,-187500.022352,-187500.022352,-187500.022352,-62795.929646,-27869.026705,187500.0,-187500.022352,-20458.730514,-33896.778094,-187500.022352,-187500.022352
1680232937.040795,0,-70206.829334,-31784.605299,-187500.022352,-66038.474862,187500.0,-187500.022352,-187500.022352,-187500.022352,-62947.630936,-27787.152265,187500.0,-187500.022352,-20512.10648,-33983.480511,-187500.022352,-187500.022352
1680232937.040812,0,-70270.934137,-31457.196946,-187500.022352,-65897.904742,187500.0,-187500.022352,-187500.022352,-187500.022352,-62887.236522,-28784.956489,187500.0,-187500.022352,-20382.421658,-35114.72465,-187500.022352,-187500.022352
1680232937.04083,0,-70319.415071,-31547.050959,-187500.022352,-65926.872602,187500.0,-187500.022352,-187500.022352,-187500.022352,-62798.902428,-27702.953244,187500.0,-187500.022352,-20506.831468,-34449.648493,-187500.022352,-187500.022352
1680232937.040847,0,-70263.491006,-31719.517019,-187500.022352,-66232.063321,187500.0,-187500.022352,-187500.022352,-187500.022352,-63025.191489,-28882.588909,187500.0,-187500.022352,-20433.093063,-35627.317205,-187500.022352,-187500.022352
1680232937.040864,0,-70410.900761,-31302.142895,-187500.022352,-65847.099226,187500.0,-187500.022352,-187500.022352,-187500.022352,-62784.463201,-28407.636691,187500.0,-187500.022352,-20449.387485,-35544.883972,-187500.022352,-187500.022352
1680232937.040901,0,-70322.276094,-31750.92122,-187500.022352,-66214.11487,187500.0,-187500.022352,-187500.022352,-187500.022352,-62917.500784,-28176.787874,187500.0,-187500.022352,-20521.136584,-35491.351544,-187500.022352,-187500.022352
1680232937.040919,0,-70451.312715,-31359.408064,-187500.022352,-65901.011634,187500.0,-187500.022352,-187500.022352,-187500.022352,-62802.545762,-28968.397256,187500.0,-187500.022352,-20395.788002,-36403.436828,-187500.022352,-187500.022352
1680232937.040937,0,-70531.376664,-31360.145671,-187500.022352,-65724.388149,187500.0,-187500.022352,-187500.022352,-187500.022352,-62568.970033,-27548.145062,187500.0,-187500.022352,-20538.906221,-35371.635601,-187500.022352,-187500.022352
1680232937.040954,0,-70545.190042,-31557.824499,-187500.022352,-65825.909773,187500.0,-187500.022352,-187500.022352,-187500.022352,-62791.571056,-28386.536644,187500.0,-187500.022352,-20468.811151,-36113.89233,-187500.022352,-187500.022352
1680232937.040971,0,-70749.462634,-31108.129753,-187500.022352,-65246.753722,187500.0,-187500.022352,-187500.022352,-187500.022352,-62516.845765,-27596.782457,187500.0,-187500.022352,-20526.4563,-35582.65842,-187500.022352,-187500.022352
1680232937.040988,0,-70653.618354,-31526.06267,-187500.022352,-65478.407202,187500.0,-187500.022352,-187500.022352,-187500.022352,-62638.349848,-27042.414491,187500.0,-187500.022352,-20630.213097,-35042.282646,-187500.022352,-187500.022352
1680232937.434628,0,-70764.170082,-31138.818698,-187500.022352,-65104.797793,187500.0,-187500.022352,-187500.022352,-187500.022352,-62600.575399,-27718.912389,187500.0,-187500.022352,-20535.061721,-35648.372549,-187500.022352,-187500.022352
1680232937.434675,0,-70815.020301,-31170.915803,-187500.022352,-64979.158637,187500.0,-187500.022352,-187500.022352,-187500.022352,-62382.288263,-26292.9605,187500.0,-187500.022352,-20707.63954,-34425.955644,-187500.022352,-187500.022352
1680232937.434707,0,-70797.407126,-31395.23791,-187500.022352,-65184.593521,187500.0,-187500.022352,-187500.022352,-187500.022352,-62689.043604,-27288.864826,187500.0,-187500.022352,-20666.355868,-35164.479633,-187500.022352,-187500.022352
1680232937.434742,0,-70932.590477,-30882.265375,-187500.022352,-64704.813326,187500.0,-187500.022352,-187500.022352,-187500.022352,-62403.187144,-26662.546594,187500.0,-187500.022352,-20706.499601,-34687.336944,-187500.022352,-187500.022352
1680232937.434762,0,-70836.813252,-31398.747134,-187500.022352,-65065.570481,187500.0,-187500.022352,-187500.022352,-187500.022352,-62529.899183,-26255.387217,187500.0,-187500.022352,-20779.835675,-34229.193238,-187500.022352,-187500.022352
1680232937.434838,0,-70849.978429,-31018.029871,-187500.022352,-64892.053889,187500.0,-187500.022352,-187500.022352,-187500.022352,-62636.919336,-27238.416939,187500.0,-187500.022352,-20685.46661,-35096.999716,-187500.022352,-187500.022352
1680232937.434859,0,-70927.226058,-31035.687749,-187500.022352,-64776.696536,187500.0,-187500.022352,-187500.022352,-187500.022352,-62368.966623,-25950.017685,187500.0,-187500.022352,-20840.051274,-34039.225762,-187500.022352,-187500.022352
1680232937.434879,0,-70959.680791,-31261.552127,-187500.022352,-64844.623488,187500.0,-187500.022352,-187500.022352,-187500.022352,-62610.521926,-26844.758015,187500.0,-187500.022352,-20740.161328,-34677.368066,-187500.022352,-187500.022352
1680232937.4349,0,-71236.887126,-30698.131704,-187500.022352,-64096.734118,187500.0,-187500.022352,-187500.022352,-187500.022352,-62201.082671,-25878.670916,187500.0,-187500.022352,-20783.322547,-33808.287538,-187500.022352,-187500.022352
1680232937.434919,0,-71315.252342,-31214.613463,-187500.022352,-64066.246339,187500.0,-187500.022352,-187500.022352,-187500.022352,-62216.684188,-24920.608094,187500.0,-187500.022352,-20908.961702,-32663.274725,-187500.022352,-187500.022352
1680232937.434939,0,-71487.271367,-30862.506433,-187500.022352,-63471.108791,187500.0,-187500.022352,-187500.022352,-187500.022352,-62243.953317,-25232.705502,187500.0,-187500.022352,-20865.688725,-32587.792884,-187500.022352,-187500.022352
1680232937.434966,0,-71663.201948,-30917.089393,-187500.022352,-63032.299344,187500.0,-187500.022352,-187500.022352,-187500.022352,-61943.702333,-23348.364037,187500.0,-187500.022352,-21116.385891,-30573.543081,-187500.022352,-187500.022352
1680232937.434986,0,-71672.030887,-31205.359841,-187500.022352,-62990.747451,187500.0,-187500.022352,-187500.022352,-187500.022352,-62286.689852,-23887.041078,187500.0,-187500.022352,-21163.078685,-30418.667843,-187500.022352,-187500.022352
1680232937.435005,0,-71834.393958,-30682.999573,-187500.022352,-62255.151541,187500.0,-187500.022352,-187500.022352,-187500.022352,-61961.919005,-22901.552665,187500.0,-187500.022352,-21249.468177,-29128.10047,-187500.022352,-187500.022352
1680232937.435025,0,-71819.93238,-31219.486144,-187500.022352,-62268.808457,187500.0,-187500.022352,-187500.022352,-187500.022352,-62011.450471,-22084.618757,187500.0,-187500.022352,-21378.348336,-27752.149433,-187500.022352,-187500.022352
1680232937.43507,0,-71900.488067,-30826.788345,-187500.022352,-61735.607593,187500.0,-187500.022352,-187500.022352,-187500.022352,-62093.503725,-22624.413386,187500.0,-187500.022352,-21273.652765,-27589.942824,-187500.022352,-187500.022352
1680232937.435091,0,-72011.799754,-30888.47916,-187500.022352,-61357.170207,187500.0,-187500.022352,-187500.022352,-187500.022352,-61716.295685,-20830.752949,187500.0,-186455.435926,-21405.036319,-25457.161719,-187500.022352,-187500.022352
1680232937.435112,0,-71920.068195,-31239.17803,-187500.022352,-61475.545046,187500.0,-187500.022352,-187500.022352,-187500.022352,-62169.052621,-21659.823854,187500.0,-186036.810104,-21423.722377,-25377.142474,-187500.022352,-187500.022352
1680232937.435131,0,-72091.886055,-30710.201646,-187500.022352,-60860.022707,187500.0,-187500.022352,-187500.022352,-187500.022352,-61899.356472,-20980.822561,187500.0,-184832.788686,-21433.780662,-24253.050894,-187500.022352,-187500.022352
1680232937.435151,0,-72027.825955,-31298.745429,-187500.022352,-61048.693782,187500.0,-187500.022352,-187500.022352,-187500.022352,-61979.420421,-20342.702608,187500.0,-183491.05817,-21552.557832,-22959.041352,-187500.022352,-187500.022352
1680232937.43517,0,-72130.286351,-30918.832829,-187500.022352,-60592.382919,187500.0,-187500.022352,-187500.022352,-187500.022352,-62095.537733,-21111.915542,187500.0,-183078.847298,-21481.523988,-22946.502024,-187500.022352,-187500.022352
1680232937.435191,0,-72286.435638,-30918.58696,-187500.022352,-60200.892115,187500.0,-187500.022352,-187500.022352,-187500.022352,-61665.177246,-19322.390178,187500.0,-181017.971756,-21626.922086,-20758.467407,-187500.022352,-187500.022352
1680232937.43521,0,-72230.869202,-31172.815701,-187500.022352,-60166.738649,187500.0,-187500.022352,-187500.022352,-187500.022352,-61985.94713,-19978.413877,187500.0,-180345.161896,-21574.775466,-20437.652819,-187500.022352,-187500.022352
1680232937.43523,0,-72501.392365,-30595.872473,-187500.022352,-59269.830199,187500.0,-186958.39488,-187500.022352,-187500.022352,-61521.254363,-18854.836387,187500.0,-178594.975602,-21568.762847,-18764.490636,-187500.022352,-187500.022352
1680232937.43525,0,-72545.470005,-31181.868158,-187500.022352,-59218.220022,187500.0,-186295.553898,-187500.022352,-187500.022352,-61427.734664,-17612.772299,187500.0,-176477.438388,-21723.615733,-16687.253617,-187500.022352,-187500.022352
1680232937.43527,0,-72509.461344,-30908.439268,-187500.022352,-58954.491789,187500.0,-185513.891043,-187500.022352,-187500.022352,-61723.828223,-18309.900857,187500.0,-175634.017662,-21710.204686,-16319.232144,-187500.022352,-187500.022352
1680232937.435313,0,-72473.78796,-30999.857903,-187500.022352,-58995.462536,187500.0,-184945.955568,-187500.022352,-187500.022352,-61605.319274,-17024.474385,187500.0,-173687.538348,-21868.052705,-14426.039389,-187500.022352,-187500.022352
1680232937.435335,0,-72155.499119,-31341.705482,-187496.1555,-59628.374532,187500.0,-184957.489068,-187500.022352,-187500.022352,-62298.692739,-18609.704806,187500.0,-173564.089664,-21820.823469,-14939.682476,-187500.022352,-187500.022352
1680232937.435355,0,-72195.86637,-30782.196615,-187228.918043,-59363.819285,187500.0,-184308.126188,-187500.022352,-187500.022352,-62069.74382,-18595.444393,187500.0,-172627.618626,-21681.527398,-14495.866239,-187500.022352,-187500.022352
1680232937.435375,0,-72009.922208,-31340.900819,-187349.818629,-59938.817911,187500.0,-184382.021055,-187500.022352,-187500.022352,-62139.660077,-18489.765345,187500.0,-171493.33465,-21696.436011,-13837.093274,-187500.022352,-187500.022352
1680232937.435396,0,-72016.73949,-30937.831812,-187017.157616,-59815.771558,187500.0,-183969.564315,-187500.022352,-187500.022352,-62296.301102,-19950.496548,187500.0,-171522.146049,-21478.551206,-14661.135037,-187500.022352,-187500.022352
1680232937.435416,0,-72133.303837,-30900.459695,-186583.667884,-59620.752587,187500.0,-183420.091381,-187500.022352,-187500.022352,-61748.90688,-18498.974264,187500.0,-169727.457431,-21544.71237,-13057.039745,-187500.022352,-187500.022352
1680232937.435435,0,-72017.477097,-31224.604693,-186254.091412,-59897.713053,187500.0,-183305.024601,-187500.022352,-187500.022352,-62102.064443,-19548.165148,187500.0,-169359.301848,-21487.514256,-13370.411202,-187500.022352,-187500.022352
1680232937.435455,0,-72165.24448,-30654.925782,-185622.2523,-59396.81046,187500.0,-182520.388963,-187500.022352,-187500.022352,-61743.274241,-19049.073046,187500.0,-168138.270752,-21475.846645,-12605.57921,-187500.022352,-187500.022352
1680232937.435474,0,-72119.825735,-31271.029266,-185384.787367,-59740.826159,187500.0,-182391.598212,-187500.022352,-187500.022352,-61779.573474,-18506.082118,187500.0,-166722.779479,-21612.147583,-11588.038395,-187500.022352,-187500.022352
1680232937.435495,0,-72150.224108,-30868.608459,-184767.633351,-59480.853019,187500.0,-181823.729792,-187500.022352,-187500.022352,-61989.501058,-19615.153326,187500.0,-166436.140708,-21490.464686,-12070.076116,-187500.022352,-187500.022352
1680232937.435605,0,-72253.422112,-30867.960258,-184253.006786,-59285.811697,187500.0,-181213.638927,-187500.022352,-187500.022352,-61556.011326,-18003.391385,187500.0,-164455.753798,-21618.406071,-10280.39429,-187500.022352,-187500.022352
1680232937.435625,0,-72087.281595,-31202.342356,-183942.004614,-59611.141337,187500.0,-181078.656742,-187500.022352,-187500.022352,-62003.672064,-19068.586119,187500.0,-164086.972366,-21583.604405,-10606.305075,-187500.022352,-187500.022352
1680232937.43565,0,-72223.001387,-30604.857874,-183268.457147,-59102.50504,187500.0,-180225.15538,-187500.022352,-187500.022352,-61664.864321,-18560.262747,187500.0,-162882.21334,-21544.622963,-9831.414799,-187500.022352,-187500.022352
1680232937.435673,0,-72123.960808,-31209.673728,-183045.632606,-59462.03285,187500.0,-180045.939093,-187500.022352,-187500.022352,-61691.507601,-17957.100923,187500.0,-161459.45775,-21643.797653,-8759.067507,-187500.022352,-187500.022352
1680232937.435699,0,-72093.383621,-30824.240246,-182534.69408,-59270.433697,187500.0,-179482.183395,-187500.022352,-187500.022352,-61928.011409,-19170.890054,187500.0,-161272.217187,-21520.661893,-9329.819301,-187500.022352,-187500.022352
1680232937.435719,0,-72123.938456,-30787.717496,-182156.279046,-59137.083189,187500.0,-178907.654155,-187500.022352,-187500.022352,-61496.063947,-17663.868387,187500.0,-159443.464511,-21620.395377,-7672.459802,-187500.022352,-187500.022352
1680232937.435739,0,-71959.496672,-31115.170552,-181971.810099,-59504.232944,187500.0,-178815.58732,-187500.022352,-187500.022352,-61957.292194,-18832.663457,187500.0,-159244.84691,-21534.408216,-8136.057333,-187500.022352,-187500.022352
1680232937.43576,0,-72117.903485,-30502.151609,-181331.343213,-58975.636539,187500.0,-177944.070452,-187500.022352,-187500.022352,-61583.794544,-18364.796742,187500.0,-158173.348984,-21485.100268,-7449.925834,-187500.022352,-187500.022352
1680232937.43578,0,-71970.270213,-31075.607964,-181166.610857,-59348.418933,187500.0,-177805.847264,-187500.022352,-187500.022352,-61581.134687,-17693.663263,187500.0,-156818.96738,-21576.518902,-6392.151879,-187500.022352,-187500.022352
1680232937.435801,0,-71957.775588,-30674.260041,-180657.304008,-59145.219224,187500.0,-177252.887458,-187500.022352,-187500.022352,-61830.177823,-18912.950923,187500.0,-156754.348487,-21427.209249,-7040.173655,-187500.022352,-187500.022352
1680232937.435821,0,-72036.47608,-30633.356349,-180204.122389,-58962.270196,187500.0,-176637.029843,-187500.022352,-187500.022352,-61366.17796,-17297.344482,187500.0,-154906.350959,-21519.767823,-5332.925061,-187500.022352,-187500.022352
1680232937.435867,0,-71860.277278,-30994.269966,-180003.426075,-59351.45877,187500.0,-176552.182621,-187500.022352,-187500.022352,-61873.607263,-18416.786899,187500.0,-154663.499256,-21488.676547,-5744.666546,-187500.022352,-187500.022352
1680232937.435888,0,-71928.539506,-30341.219049,-179457.685883,-58910.145928,187500.0,-175771.525594,-187500.022352,-187500.022352,-61587.929617,-18041.791682,187500.0,-153699.669683,-21416.905095,-5174.697062,-187500.022352,-187500.022352
1680232937.435907,0,-71830.594162,-30952.516908,-179415.530493,-59376.783297,187500.0,-175714.998032,-187500.022352,-187500.022352,-61635.829405,-17465.697821,187500.0,-152472.067174,-21526.272181,-4234.672098,-187500.022352,-187500.022352
1680232937.737874,0,-71774.647745,-30560.713179,-179067.245611,-59290.505563,187500.0,-175269.9748,-187500.022352,-187500.022352,-61922.445824,-18863.531216,187500.0,-152591.716062,-21366.188987,-5088.531087,-187500.022352,-187500.022352
1680232937.737931,0,-71807.281292,-30525.665644,-178839.526038,-59223.897365,187500.0,-174792.541539,-187500.022352,-187500.022352,-61472.482857,-17419.496765,187500.0,-150967.437144,-21442.497843,-3632.247881,-187500.022352,-187500.022352
1680232937.737962,0,-71630.568401,-30923.45964,-178854.099375,-59707.723225,187500.0,-174817.061402,-187500.022352,-187500.022352,-61986.640035,-18748.822063,187500.0,-150994.370996,-21375.688478,-4339.278262,-187500.022352,-187500.022352
1680232937.737984,0,-71741.52246,-30304.115153,-178459.25581,-59299.088633,187500.0,-174101.537359,-187500.022352,-187500.022352,-61683.215104,-18529.283229,187500.0,-150262.351365,-21299.133754,-4009.545327,-187500.022352,-187500.022352
1680232937.738004,0,-71591.139923,-30905.578244,-178594.394457,-59813.782253,187500.0,-174135.713176,-187500.022352,-187500.022352,-61713.814642,-18033.007447,187500.0,-149264.256568,-21374.325022,-3259.398432,-187500.022352,-187500.022352
1680232937.738026,0,-71515.188696,-30492.138027,-178420.766106,-59761.456819,187500.0,-173795.944309,-187500.022352,-187500.022352,-61998.508811,-19551.65202,187500.0,-149724.233118,-21201.300168,-4343.212169,-187500.022352,-187500.022352
1680232937.738046,0,-71581.193397,-30436.30337,-178279.525433,-59658.996422,187500.0,-173356.643123,-187500.022352,-187500.022352,-61494.655787,-18079.968462,187500.0,-148434.336297,-21246.227175,-2997.458338,-187500.022352,-187500.022352
1680232937.738066,0,-71428.62039,-30844.245058,-178380.644724,-60135.87089,187500.0,-173438.741081,-187500.022352,-187500.022352,-61988.495229,-19365.171416,187500.0,-148815.232374,-21193.857037,-3784.507964,-187500.022352,-187500.022352
1680232937.738155,0,-71527.705673,-30184.376858,-178077.68918,-59737.719266,187500.0,-172790.026401,-187500.022352,-187500.022352,-61682.030461,-19116.888239,187500.0,-148446.249777,-21119.604542,-3549.278206,-187500.022352,-187500.022352
1680232937.738182,0,-71386.800276,-30830.029348,-178321.032622,-60276.195142,187500.0,-172912.402202,-187500.022352,-187500.022352,-61738.602726,-18579.708765,187500.0,-147785.845135,-21218.689825,-2890.773462,-187500.022352,-187500.022352
1680232937.738211,0,-71291.760658,-30427.630893,-178283.07936,-60280.821953,187500.0,-172707.727278,-187500.022352,-187500.022352,-62053.672916,-20173.432848,187500.0,-148610.758616,-21070.855388,-4158.787925,-187500.022352,-187500.022352
1680232937.738231,0,-71352.937383,-30365.604802,-178350.380462,-60259.788961,187500.0,-172445.094281,-187500.022352,-187500.022352,-61574.876198,-18771.754953,187500.0,-147638.860063,-21125.751272,-3019.318345,-187500.022352,-187500.022352
1680232937.738251,0,-71057.760246,-30770.573708,-178810.044087,-60906.737853,187500.0,-172845.950466,-187500.022352,-187500.022352,-62122.538641,-20271.780523,187500.0,-148411.515166,-21081.695984,-4128.970698,-187500.022352,-187500.022352
1680232937.738271,0,-71117.975845,-30085.828016,-178893.170225,-60624.323562,187500.0,-172510.920168,-187500.022352,-187500.022352,-61845.309954,-20323.815384,187500.0,-148547.749048,-20941.595249,-4355.416221,-187500.022352,-187500.022352
1680232937.738291,0,-70988.313376,-30783.604775,-179570.159861,-61301.98375,187500.0,-172979.569194,-187500.022352,-187500.022352,-61947.055095,-20010.131003,187500.0,-148330.557147,-21056.214995,-4093.409073,-187500.022352,-187500.022352
1680232937.738312,0,-70880.220339,-30382.435665,-179996.005296,-61437.41297,187500.0,-173102.302623,-187500.022352,-187500.022352,-62328.845242,-21979.20793,187500.0,-149719.226327,-20859.899623,-5901.776958,-187500.022352,-187500.022352
1680232937.738331,0,-70976.265785,-30309.256054,-180494.404494,-61475.500342,187500.0,-173092.803132,-187500.022352,-187500.022352,-61905.257333,-20796.577131,187500.0,-149220.804777,-20941.952877,-5165.130516,-187500.022352,-187500.022352
1680232937.738351,0,-70702.523971,-30760.493071,-181320.65908,-62114.514365,187500.0,-173687.158368,-187500.022352,-187500.022352,-62463.559206,-22491.576969,187500.0,-150482.448993,-20877.624557,-6668.173572,-187500.022352,-187500.022352
1680232937.738402,0,-70707.754279,-29931.08689,-181722.655204,-61773.76202,187500.0,-173511.875988,-187500.022352,-187500.022352,-62136.083798,-22583.129714,187500.0,-151085.141431,-20713.987436,-7161.811848,-187500.022352,-187500.022352
1680232937.738422,0,-70587.300728,-30584.204863,-182545.355862,-62328.912297,187500.0,-174017.763021,-187500.022352,-187500.022352,-62116.771891,-22098.968577,187500.0,-151232.819406,-20781.489704,-6997.906506,-187500.022352,-187500.022352
1680232937.738443,0,-70600.488257,-30179.705343,-182958.617265,-62275.312814,187500.0,-174070.736655,-187500.022352,-187500.022352,-62380.07544,-23845.176261,187500.0,-152903.321731,-20619.528964,-8775.071356,-187500.022352,-187500.022352
1680232937.738463,0,-70700.400555,-30056.703693,-183397.069084,-62140.911775,187500.0,-173982.782541,-187500.022352,-187500.022352,-61861.693783,-22235.940067,187500.0,-152572.046527,-20721.09529,-7823.155263,-187500.022352,-187500.022352
1680232937.738483,0,-70454.531366,-30533.801679,-184172.428748,-62759.451599,187500.0,-174572.958001,-187500.022352,-187500.022352,-62365.882083,-23615.0427,187500.0,-153984.497963,-20712.623979,-9138.220148,-187500.022352,-187500.022352
1680232937.738503,0,-70493.199884,-29760.900707,-184648.096221,-62490.940093,187500.0,-174468.821224,-187500.022352,-187500.022352,-62071.062573,-23615.132107,187500.0,-154827.628115,-20601.759327,-9635.345296,-187500.022352,-187500.022352
1680232937.738522,0,-70360.676391,-30462.119634,-185623.682812,-63187.688671,187500.0,-175096.279394,-187500.022352,-187500.022352,-62105.953646,-23126.835898,187500.0,-155292.097365,-20668.30047,-9575.308511,-187500.022352,-187500.022352
1680232937.738545,0,-70284.859274,-29995.661079,-186215.646412,-63294.038271,187500.0,-175301.62487,-187500.022352,-187500.022352,-62379.717813,-24943.317466,187500.0,-157334.331552,-20471.918043,-11558.020003,-187500.022352,-187500.022352
1680232937.738567,0,-70427.172831,-29825.161973,-186663.620074,-63159.726639,187500.0,-175248.31596,-187500.022352,-187500.022352,-61795.778489,-23246.194213,187500.0,-157209.877039,-20519.706073,-10678.031823,-187500.022352,-187500.022352
1680232937.738586,0,-70272.588166,-30277.29306,-187230.907349,-63662.439723,187500.0,-175755.007655,-187500.022352,-187500.022352,-62189.28095,-24362.306221,187500.0,-158593.919408,-20472.00745,-11836.232166,-187500.022352,-187500.022352
1680232937.738606,0,-70513.607027,-29429.33493,-187196.642124,-63047.744399,187500.0,-175363.315685,-187500.022352,-187500.022352,-61758.24991,-23857.827348,187500.0,-159110.44587,-20383.628653,-11867.457553,-187500.022352,-187500.022352
1680232937.73865,0,-70541.814928,-30071.612307,-187369.622275,-63240.572898,187500.0,-175546.0859,-187500.022352,-187500.022352,-61606.772137,-22536.727492,187500.0,-158828.389207,-20538.995628,-10919.564774,-187500.022352,-187500.022352
1680232937.738671,0,-70655.36179,-29602.113915,-186966.441508,-62799.036538,187500.0,-175231.574503,-187500.022352,-187500.022352,-61722.420063,-23524.987522,187500.0,-159920.562496,-20401.442993,-11849.844378,-187500.022352,-187500.022352
1680232937.738691,0,-70980.199692,-29432.866506,-186394.370961,-62107.808841,187500.0,-174626.333967,-187500.022352,-187500.022352,-61067.581006,-21030.734006,187500.0,-158693.071746,-20586.42603,-9812.438168,-187500.022352,-187500.022352
1680232937.738711,0,-70935.920887,-29955.740864,-186020.582738,-62169.16438,187500.0,-174616.63331,-187500.022352,-187500.022352,-61484.217523,-21533.581201,187500.0,-159007.180811,-20673.530778,-9902.113366,-187500.022352,-187500.022352
1680232937.738731,0,-71186.171017,-29144.193726,-185227.542845,-61267.606767,187500.0,-173800.772286,-187500.022352,-187500.022352,-61194.315397,-20700.084651,187500.0,-158625.167146,-20688.864075,-9113.633229,-187500.022352,-187500.022352
1680232937.738752,0,-71200.587893,-29883.231805,-184943.183952,-61391.234266,187500.0,-173700.770581,-187500.022352,-187500.022352,-61267.025622,-19323.887744,187500.0,-157676.782629,-20926.083139,-7597.559106,-187500.022352,-187500.022352
1680232937.738772,0,-71201.146686,-29497.664213,-184374.712035,-61052.448875,187500.0,-173284.156416,-187500.022352,-187500.022352,-61642.311411,-20567.71762,187500.0,-158418.79349,-20825.544992,-8313.843109,-187500.022352,-187500.022352
1680232937.738792,0,-71321.779051,-29408.413697,-184047.728365,-60734.3612,187500.0,-172846.375149,-187500.022352,-187500.022352,-61270.378383,-18605.010939,187500.0,-157182.272635,-21014.260771,-6460.615273,-187500.022352,-187500.022352
1680232937.765968,0,-71019.985797,-30053.797967,-184351.443869,-61447.225386,187500.0,-173259.502442,-187500.022352,-187500.022352,-61974.368927,-20043.122177,187500.0,-158013.511659,-21031.046931,-7274.330529,-187500.022352,-187500.022352
1680232937.979852,0,-71026.221934,-29261.585088,-184391.140567,-61240.315287,187500.0,-172991.080343,-187500.022352,-187500.022352,-61812.207021,-20311.45487,187500.0,-158539.850538,-20923.780909,-7578.560123,-187500.022352,-187500.022352
1680232937.979947,0,-70793.473219,-30018.102231,-185101.322544,-62098.622274,187500.0,-173570.392855,-187500.022352,-187500.022352,-61901.12226,-19962.678249,187500.0,-158633.951382,-20988.444506,-7282.064233,-187500.022352,-187500.022352
1680232937.97997,0,-70618.190839,-29644.537526,-185638.434963,-62512.509526,187500.0,-173939.263694,-187500.022352,-187500.022352,-62258.034916,-22285.762106,187500.0,-160647.329467,-20727.845517,-9412.341942,-187500.022352,-187500.022352
1680232937.979995,0,-70580.192874,-29437.470965,-186295.419788,-62785.46903,187500.0,-174193.090104,-187500.022352,-187500.022352,-61806.507326,-21233.397273,187500.0,-160707.880343,-20712.8922,-8935.981564,-187500.022352,-187500.022352
1680232937.980015,0,-70279.003117,-30036.274199,-187338.665109,-63892.193305,187500.0,-175129.427031,-187500.022352,-187500.022352,-62318.854012,-23155.110855,187500.0,-162618.932142,-20580.346355,-10834.471683,-187500.022352,-187500.022352
1680232937.980035,0,-70314.92237,-29211.293663,-187500.022352,-63916.73552,187500.0,-175240.649312,-187500.022352,-187500.022352,-61979.755697,-23708.048309,187500.0,-163984.51197,-20407.94735,-11960.932548,-187500.022352,-187500.022352
1680232937.980057,0,-70110.672129,-29869.686648,-187500.022352,-64931.616477,187500.0,-176130.226389,-187500.022352,-187500.022352,-61964.780028,-23461.039181,187500.0,-164747.086435,-20436.177604,-12268.827828,-187500.022352,-187500.022352
1680232937.980077,0,-69907.248903,-29483.515559,-187500.022352,-65518.036844,187500.0,-176777.376446,-187500.022352,-187500.022352,-62240.779369,-25826.814869,187500.0,-167350.125891,-20168.359002,-14923.902145,-187500.022352,-187500.022352
1680232937.980097,0,-69874.995336,-29316.816249,-187500.022352,-65973.118362,187500.0,-177332.236151,-187500.022352,-187500.022352,-61777.315948,-24919.557562,187500.0,-168040.057187,-20168.135484,-15017.89123,-187500.022352,-187500.022352
1680232937.980116,0,-69524.899963,-29888.819741,-187500.022352,-67286.260997,187500.0,-178672.178527,-187500.022352,-187500.022352,-62303.744233,-26998.9627,187500.0,-170574.25327,-20063.39521,-17498.465478,-187500.022352,-187500.022352
1680232937.980136,0,-69499.798954,-29028.948132,-187500.022352,-67475.580272,187500.0,-179240.493982,-187500.022352,-187500.022352,-61959.862645,-27672.443112,187500.0,-172593.085181,-19829.014817,-19226.657656,-187500.022352,-187500.022352
1680232937.980157,0,-69333.814899,-29725.495544,-187500.022352,-68587.311338,187500.0,-180542.728966,-187500.022352,-187500.022352,-61926.893822,-27399.438906,187500.0,-173966.264602,-19830.557088,-20036.23784,-187500.022352,-187500.022352
1680232937.980204,0,-69236.473052,-29424.439898,-187500.022352,-69189.266168,187500.0,-181522.003594,-187500.022352,-187500.022352,-62212.057377,-29699.43341,187500.0,-177079.996715,-19634.331123,-23066.933223,-187500.022352,-187500.022352
1680232937.980224,0,-69304.601169,-29203.872884,-187500.022352,-69482.677517,187500.0,-182223.714259,-187500.022352,-187500.022352,-61746.761113,-28540.406053,187500.0,-178159.407158,-19682.655595,-23301.335967,-187500.022352,-187500.022352
1680232937.980244,0,-69062.799998,-29732.938675,-187500.022352,-70518.636169,187500.0,-183547.138697,-187500.022352,-187500.022352,-62184.631787,-30063.073941,187500.0,-180804.825521,-19623.311713,-25557.677514,-187500.022352,-187500.022352
1680232937.980264,0,-69161.572356,-28865.266307,-187500.022352,-70358.955307,187500.0,-183930.225245,-187500.022352,-187500.022352,-61809.793032,-30204.918111,187500.0,-182837.783735,-19480.79699,-26928.510002,-187500.022352,-187500.022352
1680232937.980284,0,-69083.140085,-29463.309582,-187500.022352,-71015.40369,187500.0,-184926.800123,-187500.022352,-187500.022352,-61727.739778,-29335.278789,187500.0,-184011.809112,-19579.70346,-27161.504586,-187500.022352,-187500.022352
1680232937.980304,0,-69037.475471,-29005.747021,-187500.022352,-71115.070118,187500.0,-185543.641215,-187500.022352,-187500.022352,-61902.552772,-30936.490707,187500.0,-186758.592636,-19389.55717,-29467.288192,-187500.022352,-187500.022352
1680232937.980324,0,-69203.928912,-28668.660363,-187500.022352,-70789.069925,187500.0,-185772.523078,-187500.022352,-187500.022352,-61290.606712,-28998.505056,187500.0,-187265.843125,-19431.153766,-28814.349033,-187500.022352,-187500.022352
1680232937.980345,0,-69175.184569,-29153.804976,-187500.022352,-71123.966113,187500.0,-186529.576663,-187500.022352,-187500.022352,-61627.738074,-29605.086697,187500.0,-187500.022352,-19443.804853,-29928.40468,-187500.022352,-187500.022352
1680232937.980365,0,-69444.187813,-28290.804123,-187500.022352,-70240.066378,187500.0,-186307.48973,-187500.022352,-187500.022352,-61213.359083,-28824.496725,187500.0,-187500.022352,-19395.122754,-30018.48221,-187500.022352,-187500.022352
1680232937.980386,0,-69477.067229,-28876.218662,-187500.022352,-70264.318021,187500.0,-186748.780221,-187500.022352,-187500.022352,-61137.609021,-27053.120977,187500.0,-187500.022352,-19597.428393,-28907.756973,-187500.022352,-187500.022352
1680232937.980429,0,-69526.91162,-28498.585939,-187500.022352,-69826.894382,187500.0,-186850.972396,-187500.022352,-187500.022352,-61361.260576,-27963.127549,187500.0,-187500.022352,-19485.066174,-30025.858286,-187500.022352,-187500.022352
1680232937.98045,0,-69753.178329,-28245.117157,-187500.022352,-69080.726097,187500.0,-186648.242074,-187500.022352,-187500.022352,-60866.705879,-25549.943811,187500.0,-187500.022352,-19627.402082,-28290.826475,-187500.022352,-187500.022352
1680232937.98047,0,-69650.270897,-28771.478387,-187500.022352,-69203.481877,187500.0,-187124.669507,-187500.022352,-187500.022352,-61303.347207,-25932.650379,187500.0,-187500.022352,-19689.562284,-28566.490539,-187500.022352,-187500.022352
1680232937.980489,0,-69877.342269,-27983.780561,-187500.022352,-68230.309275,187500.0,-186704.300249,-187500.022352,-187500.022352,-61009.935857,-25224.033025,187500.0,-187500.022352,-19627.312675,-28104.234112,-187500.022352,-187500.022352
1680232937.98051,0,-69877.811656,-28601.158095,-187500.022352,-68181.202493,187500.0,-186952.538723,-187500.022352,-187500.022352,-60988.589941,-23606.280816,187500.0,-187500.022352,-19808.987654,-26578.414628,-187500.022352,-187500.022352
1680232937.98053,0,-69931.657008,-28275.739047,-187500.022352,-67706.31733,187500.0,-186844.021004,-187500.022352,-187500.022352,-61261.437686,-24644.675809,187500.0,-187500.022352,-19696.267807,-27284.014497,-187500.022352,-187500.022352
1680232937.98055,0,-70141.405778,-28119.500353,-187500.022352,-66988.625167,187500.0,-186436.079316,-187500.022352,-187500.022352,-60847.796303,-22488.581835,187500.0,-187500.022352,-19869.046792,-25299.939549,-187500.022352,-187500.022352
1680232937.980577,0,-70030.876402,-28749.35016,-187500.022352,-67198.351586,187500.0,-186721.131113,-187500.022352,-187500.022352,-61354.175073,-23114.542438,187500.0,-187500.022352,-19947.143787,-25393.973338,-187500.022352,-187500.022352
1680232938.07226,0,-70248.537689,-28057.586021,-187500.022352,-66368.386611,187500.0,-186143.584388,-187500.022352,-187500.022352,-61154.059905,-22774.214777,187500.0,-187500.022352,-19919.181754,-24927.023044,-187500.022352,-187500.022352
1680232938.072298,0,-70284.211073,-28785.314117,-187500.022352,-66471.674022,187500.0,-186214.506473,-187500.022352,-187500.022352,-61213.381435,-21535.458748,187500.0,-187500.022352,-20158.926566,-23454.266602,-187500.022352,-187500.022352
1680232938.072319,0,-70320.465603,-28583.500216,-187500.022352,-66239.573507,187500.0,-186043.135648,-187500.022352,-187500.022352,-61611.331893,-22976.833341,187500.0,-187500.022352,-20091.513704,-24311.880685,-187500.022352,-187500.022352
1680232938.072396,0,-70513.204695,-28446.640485,-187500.022352,-65747.701019,187500.0,-185615.166797,-187500.022352,-187500.022352,-61242.684572,-21234.559564,187500.0,-187500.022352,-20261.476369,-22588.114153,-187500.022352,-187500.022352
1680232938.07242,0,-70383.274005,-29073.651621,-187500.022352,-66139.437692,187500.0,-185902.8561,-187500.022352,-187500.022352,-61781.920407,-22149.170595,187500.0,-187500.022352,-20338.589887,-22867.53331,-187500.022352,-187500.022352
1680232938.072481,0,-70624.002293,-28454.977686,-187500.022352,-65459.877605,187500.0,-185342.699032,-187500.022352,-187500.022352,-61586.767326,-22050.152367,187500.0,-187500.022352,-20331.906716,-22576.513598,-187500.022352,-187500.022352
1680232938.07252,0,-70590.832304,-29136.549429,-187500.022352,-65698.728347,187500.0,-185474.931952,-187500.022352,-187500.022352,-61642.04319,-20968.238529,187500.0,-187500.022352,-20549.679762,-21251.077503,-187500.022352,-187500.022352
1680232938.072554,0,-70584.327946,-28910.439183,-187500.022352,-65595.284473,187500.0,-185384.586201,-187500.022352,-187500.022352,-62005.102575,-22529.887859,187500.0,-187500.022352,-20445.565336,-22231.715588,-187500.022352,-187500.022352
1680232938.072581,0,-70712.090518,-28703.171456,-187500.022352,-65186.918102,187500.0,-185030.087534,-187500.022352,-187500.022352,-61582.341681,-20907.352377,187500.0,-187500.022352,-20556.899376,-20642.707723,-187500.022352,-187500.022352
1680232938.072601,0,-70523.77707,-29338.564496,-187500.022352,-65718.576696,187500.0,-185430.921368,-187500.022352,-187500.022352,-62072.694251,-21922.70272,187500.0,-187500.022352,-20539.733236,-21058.763094,-187500.022352,-187500.022352
1680232938.179657,0,-70678.67466,-28598.453533,-187500.022352,-65140.538232,187500.0,-184990.971981,-187500.022352,-187500.022352,-61855.50235,-22007.616998,187500.0,-187500.022352,-20481.886921,-21001.006186,-187500.022352,-187500.022352
1680232938.179697,0,-70571.028658,-29229.398576,-187500.022352,-65480.865893,187500.0,-185247.391194,-187500.022352,-187500.022352,-61811.335303,-20985.628186,187500.0,-187500.022352,-20629.453138,-19838.737826,-187500.022352,-187500.022352
1680232938.179718,0,-70513.718785,-28997.521579,-187500.022352,-65492.175876,187500.0,-185276.247296,-187500.022352,-187500.022352,-62156.110961,-22727.61139,187500.0,-187500.022352,-20477.349517,-21072.308251,-187500.022352,-187500.022352
1680232938.179795,0,-70698.388898,-28764.817567,-187500.022352,-65087.363432,187500.0,-184948.593074,-187500.022352,-187500.022352,-61669.468781,-21141.822176,187500.0,-187500.022352,-20555.267698,-19642.578917,-187500.022352,-187500.022352
1680232938.179815,0,-70514.992835,-29393.750953,-187500.022352,-65630.533174,187500.0,-185365.274294,-187500.022352,-187500.022352,-62128.305391,-22134.284334,187500.0,-187500.022352,-20559.559233,-20129.846946,-187500.022352,-187500.022352
1680232938.179835,0,-70670.628032,-28578.247556,-187500.022352,-65014.854373,187500.0,-184898.949849,-187500.022352,-187500.022352,-61876.468286,-22160.234709,187500.0,-187500.022352,-20488.324224,-20090.574931,-187500.022352,-187500.022352
1680232938.179856,0,-70581.399868,-29199.514294,-187500.022352,-65325.163642,187500.0,-185114.688887,-187500.022352,-187500.022352,-61770.766887,-20967.61268,187500.0,-187500.022352,-20594.919693,-18843.101721,-187500.022352,-187500.022352
1680232938.179875,0,-70559.584565,-28961.602326,-187500.022352,-65289.803182,187500.0,-185091.443073,-187500.022352,-187500.022352,-62103.651417,-22708.366538,187500.0,-187500.022352,-20450.236851,-20081.567178,-187500.022352,-187500.022352
1680232938.179894,0,-70687.056564,-28667.565127,-187500.022352,-64856.358153,187500.0,-184745.371013,-187500.022352,-187500.022352,-61610.460175,-20964.259918,187500.0,-187500.022352,-20571.293899,-18548.483378,-187500.022352,-187500.022352
1680232938.179914,0,-70471.630451,-29364.76074,-187500.022352,-65493.539333,187500.0,-185220.099714,-187500.022352,-187500.022352,-62086.90996,-22016.110661,187500.0,-187500.022352,-20557.72639,-19111.188544,-187500.022352,-187500.022352
1680232938.179933,0,-70744.612306,-28087.112676,-187500.022352,-64526.24524,187500.0,-184463.850792,-187500.022352,-187500.022352,-61819.76191,-22126.93061,187500.0,-187500.022352,-20449.298078,-19194.15822,-187500.022352,-187500.022352
1680232938.179957,0,-70733.145861,-29284.249757,-187500.022352,-64802.132821,187500.0,-184590.741645,-187500.022352,-187500.022352,-61444.744342,-18484.088002,187500.0,-187500.022352,-20822.639265,-15822.174051,-187500.022352,-187500.022352
1680232938.179976,0,-70180.208406,-29892.328965,-187500.022352,-66228.46469,187500.0,-185727.730182,-187500.022352,-187500.022352,-62750.510901,-25564.15952,187500.0,-187500.022352,-20204.077089,-21313.461222,-187500.022352,-187500.022352
1680232938.215818,0,-71186.014555,-26531.095985,-187500.022352,-63013.613285,187500.0,-183235.868303,-187500.022352,-187500.022352,-60909.040083,-19290.0025,187500.0,-187500.022352,-20622.613504,-16706.207896,-187500.022352,-187500.022352
1680232938.2159,0,-70118.942275,-31663.883527,-187500.022352,-66751.696676,187500.0,-186007.529319,-187500.022352,-187500.022352,-62369.726583,-20557.704038,187500.0,-187500.022352,-20757.036895,-16616.353883,-187500.022352,-187500.022352
1680232938.215921,0,-70736.72214,-26671.107313,-187500.022352,-64068.906196,187500.0,-184053.852743,-187500.022352,-187500.022352,-62160.089571,-26184.398077,187500.0,-187500.022352,-20017.037692,-21951.715285,-187500.022352,-187500.022352
1680232938.65809,0,-70923.783889,-29776.971612,-187500.022352,-64637.668686,187500.0,-184307.589746,-187500.022352,-187500.022352,-60832.060675,-14748.373896,187500.0,-187500.022352,-21214.554753,-12129.487053,-187500.022352,-187500.022352
1680232938.658149,0,-69994.487762,-30071.209976,-187500.022352,-66674.583158,187500.0,-185936.316661,-187500.022352,-187500.022352,-63333.422045,-28086.308013,187500.0,-187500.022352,-20040.037637,-22583.375583,-187500.022352,-187500.022352
1680232938.658185,0,-71337.581734,-26180.263004,-187500.022352,-62746.219366,187500.0,-182908.169378,-187500.022352,-187500.022352,-60657.314737,-18384.801553,187500.0,-187500.022352,-20729.857174,-15548.298126,-187500.022352,-187500.022352
1680232938.658221,0,-70041.649943,-32231.528429,-187500.022352,-67356.624288,187500.0,-186323.650041,-187500.022352,-187500.022352,-62694.832706,-21262.18632,187500.0,-187500.022352,-20799.616969,-16603.903962,-187500.022352,-187500.022352
1680232938.658254,0,-70710.727061,-26458.072836,-187500.022352,-64292.334234,187500.0,-184126.048878,-187500.022352,-187500.022352,-62279.760811,-27088.772009,187500.0,-187500.022352,-20009.639264,-22383.19336,-187500.022352,-187500.022352
1680232938.658275,0,-70914.753785,-29937.188916,-187500.022352,-65069.437333,187500.0,-184544.071203,-187500.022352,-187500.022352,-60873.791382,-14835.277478,187500.0,-187500.022352,-21258.319468,-11969.135638,-187500.022352,-187500.022352
1680232938.658295,0,-69910.15463,-30215.624597,-187500.022352,-67280.851874,187500.0,-186340.771477,-187500.022352,-187500.022352,-63575.580844,-29047.298914,187500.0,-187500.022352,-20089.904379,-23202.518905,-187500.022352,-187500.022352
1680232938.658314,0,-71334.519545,-26222.977188,-187500.022352,-63290.238475,187500.0,-183310.254909,-187500.022352,-187500.022352,-60769.565197,-19280.994747,187500.0,-187500.022352,-20709.740604,-16298.601484,-187500.022352,-187500.022352
1680232938.658377,0,-70049.026018,-32483.410237,-187500.022352,-68023.957971,187500.0,-186826.988974,-187500.022352,-187500.022352,-62813.945152,-21978.984413,187500.0,-187500.022352,-20849.059027,-17271.215292,-187500.022352,-187500.022352
1680232938.658398,0,-70675.120732,-26214.237656,-187500.022352,-64722.985294,187500.0,-184507.704915,-187500.022352,-187500.022352,-62425.136557,-28121.154382,187500.0,-187500.022352,-19989.72386,-23443.291896,-187500.022352,-187500.022352
1680232938.658418,0,-70952.327067,-30243.921905,-187500.022352,-65658.338744,187500.0,-185037.396555,-187500.022352,-187500.022352,-60858.033402,-14786.193047,187500.0,-187500.022352,-21312.500097,-12165.428658,-187500.022352,-187500.022352
1680232938.658455,0,-69959.216709,-30325.304607,-187500.022352,-67832.202355,187500.0,-186719.43238,-187500.022352,-187500.022352,-63830.100158,-30558.92504,187500.0,-187500.022352,-20042.876308,-24683.500789,-187500.022352,-187500.022352
1680232938.658475,0,-71506.292702,-26025.611284,-187500.022352,-63387.848543,187500.0,-183424.002936,-187500.022352,-187500.022352,-60673.832676,-19002.626121,187500.0,-187500.022352,-20864.526434,-16419.949105,-187500.022352,-187500.022352
1680232938.658494,0,-70178.308508,-32852.437538,-187500.022352,-68474.613842,187500.0,-187061.838753,-187500.022352,-187500.022352,-63016.384902,-22549.088007,187500.0,-187500.022352,-20933.392159,-17929.585925,-187500.022352,-187500.022352
1680232938.658516,0,-70801.989234,-26253.420264,-187500.022352,-64939.126663,187500.0,-184678.718111,-187500.022352,-187500.022352,-62543.958431,-28569.753894,187500.0,-187500.022352,-20141.492205,-24064.916261,-187500.022352,-187500.022352
1680232938.658537,0,-71066.969164,-30344.214182,-187500.022352,-65889.187561,187500.0,-185228.682784,-187500.022352,-187500.022352,-60946.814531,-15010.135175,187500.0,-187500.022352,-21440.41913,-12606.138004,-187500.022352,-187500.022352
1680232938.658557,0,-70033.737425,-30391.510474,-187500.022352,-68042.91225,187500.0,-186835.683803,-187500.022352,-187500.022352,-63933.745198,-30811.656214,187500.0,-187500.022352,-20158.703048,-25152.641553,-187500.022352,-187500.022352
1680232938.658576,0,-71501.01769,-26059.787102,-187500.022352,-63624.106482,187500.0,-183694.548451,-187500.022352,-187500.022352,-60728.169766,-19269.394191,187500.0,-187500.022352,-20880.530284,-16923.377445,-187500.022352,-187500.022352
1680232938.658596,0,-70198.402726,-32839.987617,-187500.022352,-68639.390902,187500.0,-187190.674208,-187500.022352,-187500.022352,-63004.06909,-22701.459849,187500.0,-187500.022352,-20950.133616,-18366.540178,-187500.022352,-187500.022352
1680232938.658641,0,-70779.033992,-26318.799116,-187500.022352,-65162.509997,187500.0,-185055.389709,-187500.022352,-187500.022352,-62571.540483,-28749.573678,187500.0,-187500.022352,-20151.885766,-24523.372891,-187500.022352,-187500.022352
1680232938.65866,0,-71048.014885,-30295.845007,-187500.022352,-66040.978258,187500.0,-185631.260053,-187500.022352,-187500.022352,-60930.430702,-15256.138474,187500.0,-187500.022352,-21416.748633,-13161.802371,-187500.022352,-187500.022352
1680232938.65868,0,-69969.699677,-30396.20434,-187500.022352,-68227.582363,187500.0,-187113.381876,-187500.022352,-187500.022352,-63891.478049,-30881.751285,187500.0,-187500.022352,-20150.946993,-25589.260529,-187500.022352,-187500.022352
1680232938.6587,0,-71446.300619,-26012.624921,-187500.022352,-63827.619115,187500.0,-184284.768615,-187500.022352,-187500.022352,-60714.199926,-19571.232149,187500.0,-187500.022352,-20820.292332,-17588.744174,-187500.022352,-187500.022352
1680232938.658719,0,-70135.057883,-32769.110235,-187500.022352,-68807.476021,187500.0,-187491.483985,-187500.022352,-187500.022352,-62927.82729,-22775.645289,187500.0,-187500.022352,-20900.177467,-18883.223102,-187500.022352,-187500.022352
1680232938.658739,0,-70686.341308,-26304.046965,-187500.022352,-65406.322826,187500.0,-185807.615317,-187500.022352,-187500.022352,-62521.450224,-28978.947279,187500.0,-187500.022352,-20086.685727,-25196.629786,-187500.022352,-187500.022352
1680232938.658759,0,-70987.486361,-30179.437122,-187500.022352,-66199.340367,187500.0,-186185.695074,-187500.022352,-187500.022352,-60863.554283,-15473.956224,187500.0,-187500.022352,-21332.706074,-13860.786123,-187500.022352,-187500.022352
1680232938.658779,0,-69931.746415,-30381.519244,-187500.022352,-68424.61299,187500.0,-187500.022352,-187500.022352,-187500.022352,-63819.304266,-30947.063082,187500.0,-187500.022352,-20105.662358,-26170.98703,-187500.022352,-187500.022352
1680232938.658799,0,-71370.952889,-25960.880633,-187500.022352,-64026.192013,187500.0,-185087.285648,-187500.022352,-187500.022352,-60695.513868,-19861.089571,187500.0,-187500.022352,-20775.67825,-18364.483817,-187500.022352,-187500.022352
1680232938.658818,0,-70136.711912,-32689.001583,-187500.022352,-68928.063682,187500.0,-187500.022352,-187500.022352,-187500.022352,-62849.484426,-22824.34974,187500.0,-187500.022352,-20872.573062,-19471.05163,-187500.022352,-187500.022352
1680232938.658839,0,-70627.377406,-26345.442396,-187500.022352,-65628.052131,187500.0,-186430.714897,-187500.022352,-187500.022352,-62528.938058,-29175.50852,187500.0,-187500.022352,-20061.98705,-25890.852617,-187500.022352,-187500.022352
1680232938.658882,0,-71005.390108,-30103.664709,-187500.022352,-66343.307953,187500.0,-186580.829213,-187500.022352,-187500.022352,-60845.851701,-15727.156785,187500.0,-187500.022352,-21280.693564,-14630.893127,-187500.022352,-187500.022352
1680232938.658901,0,-69952.086503,-30458.610411,-187500.022352,-68608.143164,187500.0,-187500.022352,-187500.022352,-187500.022352,-63819.48308,-31038.034682,187500.0,-187500.022352,-20120.861545,-26805.150724,-187500.022352,-187500.022352
1680232938.658921,0,-71322.673121,-25981.712458,-187500.022352,-64276.352737,187500.0,-185922.726801,-187500.022352,-187500.022352,-60770.794543,-20268.517169,187500.0,-187500.022352,-20757.34982,-19261.30286,-187500.022352,-187500.022352
1680232938.658941,0,-70163.243432,-32676.574013,-187500.022352,-69128.804699,187500.0,-187500.022352,-187500.022352,-187500.022352,-62846.556347,-22999.095678,187500.0,-187500.022352,-20843.784016,-20222.092595,-187500.022352,-187500.022352
1680232938.658961,0,-70649.952668,-26426.713339,-187500.022352,-65906.487811,187500.0,-186859.689577,-187500.022352,-187500.022352,-62587.611388,-29496.144294,187500.0,-187500.022352,-20064.445742,-26778.775666,-187500.022352,-187500.022352
1680232938.658981,0,-70999.288082,-30062.112816,-187500.022352,-66556.588299,187500.0,-186994.627058,-187500.022352,-187500.022352,-60908.525992,-16087.355147,187500.0,-187500.022352,-21299.424326,-15538.21749,-187500.022352,-187500.022352
1680232938.659,0,-69993.660747,-30493.434428,-187500.022352,-68842.165928,187500.0,-187500.022352,-187500.022352,-187500.022352,-63813.761033,-31239.17803,187500.0,-187500.022352,-20100.096774,-27624.74449,-187500.022352,-187500.022352
1680232938.659019,0,-71360.805197,-26012.647273,-187500.022352,-64469.024774,187500.0,-186747.059136,-187500.022352,-187500.022352,-60850.098532,-20691.434525,187500.0,-187500.022352,-20770.582053,-20224.595991,-187500.022352,-187500.022352
1680232938.659039,0,-70226.275352,-32658.312638,-187500.022352,-69242.195099,187500.0,-187500.022352,-187500.022352,-187500.022352,-62834.888737,-23146.103102,187500.0,-187500.022352,-20876.104638,-20964.975174,-187500.022352,-187500.022352
1680232938.659059,0,-70677.333555,-26510.130049,-187500.022352,-66090.420317,187500.0,-187264.636131,-187500.022352,-187500.022352,-62641.792016,-29769.26026,187500.0,-187500.022352,-20104.410661,-27609.254731,-187500.022352,-187500.022352
1680232938.659101,0,-71107.626987,-30015.643539,-187500.022352,-66633.232431,187500.0,-187350.958568,-187500.022352,-187500.022352,-60944.355839,-16340.06397,187500.0,-187500.022352,-21292.80821,-16357.140703,-187500.022352,-187500.022352
1680232938.659121,0,-70034.69855,-30542.451804,-187500.022352,-68976.097581,187500.0,-187500.022352,-187500.022352,-187500.022352,-63845.142882,-31345.952314,187500.0,-187500.022352,-20156.981964,-28309.154905,-187500.022352,-187500.022352
1680232938.65914,0,-71340.018075,-26016.603531,-187500.022352,-64631.410197,187500.0,-187450.937921,-187500.022352,-187500.022352,-60908.74951,-21039.004152,187500.0,-187500.022352,-20740.742474,-21113.994254,-187500.022352,-187500.022352
1680232938.65916,0,-70260.361762,-32648.589629,-187500.022352,-69362.313373,187500.0,-187500.022352,-187500.022352,-187500.022352,-62829.636077,-23260.611088,187500.0,-187500.022352,-20854.490501,-21671.290299,-187500.022352,-187500.022352
1680232938.65918,0,-70651.293773,-26575.933585,-187500.022352,-66277.258548,187500.0,-187500.022352,-187500.022352,-187500.022352,-62694.318616,-30052.345103,187500.0,-187500.022352,-20098.710966,-28461.593802,-187500.022352,-187500.022352
1680232938.6592,0,-71085.029374,-29953.416282,-187500.022352,-66747.315734,187500.0,-187500.022352,-187500.022352,-187500.022352,-60964.427705,-16598.159563,187500.0,-187500.022352,-21297.077393,-17173.962852,-187500.022352,-187500.022352
1680232938.659219,0,-70064.269908,-30606.824828,-187500.022352,-69121.942713,187500.0,-187500.022352,-187500.022352,-187500.022352,-63847.512167,-31501.788676,187500.0,-187500.022352,-20165.497978,-29071.148225,-187500.022352,-187500.022352
1680232938.65924,0,-71311.38549,-26017.385842,-187500.022352,-64768.269928,187500.0,-187500.022352,-187500.022352,-187500.022352,-60986.108897,-21384.182141,187500.0,-187500.022352,-20772.996041,-22018.658759,-187500.022352,-187500.022352
1680232938.659259,0,-70281.282995,-32647.941428,-187500.022352,-69467.925366,187500.0,-187500.022352,-187500.022352,-187500.022352,-62830.641905,-23365.150197,187500.0,-187500.022352,-20868.885025,-22396.470296,-187500.022352,-187500.022352
1680232938.659279,0,-70630.998389,-26649.29201,-187500.022352,-66417.06871,187500.0,-187500.022352,-187500.022352,-187500.022352,-62754.84714,-30344.169479,187500.0,-187500.022352,-20103.360129,-29334.496478,-187500.022352,-187500.022352
1680232938.659298,0,-71039.253001,-29906.23175,-187500.022352,-66819.333055,187500.0,-187500.022352,-187500.022352,-187500.022352,-60983.940778,-16807.975389,187500.0,-187500.022352,-21308.007396,-17968.34385,-187500.022352,-187500.022352
1680232938.659341,0,-70042.476957,-30644.219296,-187500.022352,-69247.291296,187500.0,-187500.022352,-187500.022352,-187500.022352,-63849.59088,-31654.361684,187500.0,-187500.022352,-20189.190828,-29825.094917,-187500.022352,-187500.022352
1680232938.65936,0,-71310.35731,-26029.366378,-187500.022352,-64827.23383,187500.0,-187500.022352,-187500.022352,-187500.022352,-61033.382837,-21668.541034,187500.0,-187500.022352,-20792.3303,-22857.743246,-187500.022352,-187500.022352
1680232938.659379,0,-70259.914727,-32650.377768,-187500.022352,-69540.009742,187500.0,-187500.022352,-187500.022352,-187500.022352,-62803.730405,-23418.012073,187500.0,-187500.022352,-20911.643912,-23028.532926,-187500.022352,-187500.022352
1680232938.6594,0,-70602.522266,-26713.329758,-187500.022352,-66521.607819,187500.0,-187500.022352,-187500.022352,-187500.022352,-62751.829654,-30577.007601,187500.0,-187500.022352,-20112.144364,-30110.526694,-187500.022352,-187500.022352
1680232938.659434,0,-71042.985742,-29880.817816,-187500.022352,-66839.181404,187500.0,-187500.022352,-187500.022352,-187500.022352,-60911.319961,-16910.413433,187500.0,-187500.022352,-21271.14937,-18634.202318,-187500.022352,-187500.022352
1680232938.659468,0,-70029.580001,-30720.617559,-187500.022352,-69318.883934,187500.0,-187500.022352,-187500.022352,-187500.022352,-63791.252827,-31696.98646,187500.0,-187500.022352,-20162.480493,-30409.369517,-187500.022352,-187500.022352
1680232938.659487,0,-71263.932736,-26009.383918,-187500.022352,-64838.856737,187500.0,-187500.022352,-187500.022352,-187500.022352,-60967.333432,-21844.136339,187500.0,-187500.022352,-20762.468369,-23528.407339,-187500.022352,-187500.022352
1680232938.659507,0,-70217.401709,-32637.681977,-187500.022352,-69529.906753,187500.0,-187500.022352,-187500.022352,-187500.022352,-62666.937729,-23323.93358,187500.0,-187500.022352,-20905.072499,-23455.406541,-187500.022352,-187500.022352
1680232938.659527,0,-70563.317306,-26746.119767,-187500.022352,-66538.349275,187500.0,-187500.022352,-187500.022352,-187500.022352,-62686.495505,-30672.44955,187500.0,-187500.022352,-20066.591509,-30649.024922,-187500.022352,-187500.022352
1680232938.946874,0,-71045.444434,-29818.456449,-187500.022352,-66749.528557,187500.0,-187500.022352,-187500.022352,-187500.022352,-60776.382479,-16896.801221,187500.0,-187500.022352,-21292.607044,-19047.150796,-187500.022352,-187500.022352
1680232938.947064,0,-69968.380924,-30730.631141,-187500.022352,-69312.156059,187500.0,-187500.022352,-187500.022352,-187500.022352,-63722.543564,-31632.032291,187500.0,-187500.022352,-20185.860418,-30728.865353,-187500.022352,-187500.022352
1680232938.947086,0,-71192.474209,-25957.505519,-187500.022352,-64824.037531,187500.0,-187500.022352,-187500.022352,-187500.022352,-60899.987626,-21964.768704,187500.0,-187500.022352,-20718.569543,-24017.61997,-187500.022352,-187500.022352
1680232938.947109,0,-70225.895372,-32626.30494,-187500.022352,-69495.283901,187500.0,-187500.022352,-187500.022352,-187500.022352,-62552.876777,-23222.70253,187500.0,-187500.022352,-20873.601243,-23757.020981,-187500.022352,-187500.022352
1680232938.947128,0,-70587.725411,-26824.44028,-187500.022352,-66561.930366,187500.0,-187500.022352,-187500.022352,-187500.022352,-62718.771424,-30769.947859,187500.0,-187500.022352,-20092.921864,-31073.149273,-187500.022352,-187500.022352
1680232938.947148,0,-71032.480423,-29800.91033,-187500.022352,-66738.911478,187500.0,-187500.022352,-187500.022352,-187500.022352,-60744.531243,-16960.168417,187500.0,-187500.022352,-21299.826658,-19482.093392,-187500.022352,-187500.022352
1680232938.947167,0,-70006.356538,-30808.974005,-187500.022352,-69360.771103,187500.0,-187500.022352,-187500.022352,-187500.022352,-63732.937125,-31637.731986,187500.0,-187500.022352,-20189.079069,-31092.170607,-187500.022352,-187500.022352
1680232938.947198,0,-71241.871565,-25973.241147,-187500.022352,-64865.768238,187500.0,-187500.022352,-187500.022352,-187500.022352,-60938.633792,-22163.855691,187500.0,-187500.022352,-20768.860968,-24533.47588,-187500.022352,-187500.022352
1680232938.947225,0,-70296.526885,-32661.844213,-187500.022352,-69495.842695,187500.0,-187500.022352,-187500.022352,-187500.022352,-62542.103236,-23198.294425,187500.0,-187500.022352,-20929.033569,-24086.888026,-187500.022352,-187500.022352
1680232938.947247,0,-70567.787655,-26895.94351,-187500.022352,-66668.704649,187500.0,-187500.022352,-187500.022352,-187500.022352,-62790.386413,-30942.212754,187500.0,-187500.022352,-20140.195804,-31523.201647,-187500.022352,-187500.022352
1680232938.947267,0,-71067.30444,-29751.758844,-187500.022352,-66771.500322,187500.0,-187500.022352,-187500.022352,-187500.022352,-60736.618726,-17101.811421,187500.0,-187500.022352,-21304.654635,-19962.790008,-187500.022352,-187500.022352
1680232938.947287,0,-70068.807312,-30925.516,-187500.022352,-69433.458976,187500.0,-187500.022352,-187500.022352,-187500.022352,-63771.270367,-31700.674498,187500.0,-187500.022352,-20206.580485,-31459.320362,-187500.022352,-187500.022352
1680232938.947336,0,-71284.362231,-26044.677322,-187500.022352,-64947.530919,187500.0,-187500.022352,-187500.022352,-187500.022352,-61021.737578,-22450.963849,187500.0,-187500.022352,-20803.394413,-25100.003195,-187500.022352,-187500.022352
1680232938.947357,0,-70406.78804,-32736.49904,-187500.022352,-69528.945628,187500.0,-187500.022352,-187500.022352,-187500.022352,-62576.36846,-23237.745254,187500.0,-187500.022352,-21011.377396,-24440.96201,-187500.022352,-187500.022352
1680232938.947377,0,-70624.784604,-27030.523363,-187500.022352,-66796.802497,187500.0,-187500.022352,-187500.022352,-187500.022352,-62905.296732,-31169.865271,187500.0,-187500.022352,-20208.972121,-32000.053763,-187500.022352,-187500.022352
1680232938.947397,0,-71131.945685,-29747.959047,-187500.022352,-66817.410805,187500.0,-187500.022352,-187500.022352,-187500.022352,-60783.423279,-17272.757563,187500.0,-187500.022352,-21342.585545,-20446.057075,-187500.022352,-187500.022352
1680232938.947417,0,-70119.590476,-31038.973455,-187500.022352,-69522.776547,187500.0,-187500.022352,-187500.022352,-187500.022352,-63823.528746,-31731.542257,187500.0,-187500.022352,-20277.614329,-31770.434293,-187500.022352,-187500.022352
1680232938.947436,0,-71341.068607,-26062.759884,-187500.022352,-65027.483109,187500.0,-187500.022352,-187500.022352,-187500.022352,-61092.212628,-22692.876779,187500.0,-187500.022352,-20825.075606,-25591.115724,-187500.022352,-187500.022352
1680232938.947456,0,-70450.038666,-32733.16863,-187500.022352,-69505.453945,187500.0,-187500.022352,-187500.022352,-187500.022352,-62567.830094,-23162.598689,187500.0,-187500.022352,-21041.865175,-24665.842911,-187500.022352,-187500.022352
1680232938.947476,0,-70686.475418,-27060.564108,-187500.022352,-66780.709241,187500.0,-187500.022352,-187500.022352,-187500.022352,-62926.79911,-31168.077131,187500.0,-187500.022352,-20263.331564,-32215.926911,-187500.022352,-187500.022352
1680232938.947495,0,-71236.641256,-29693.465494,-187500.022352,-66665.977736,187500.0,-187500.022352,-187500.022352,-187500.022352,-60776.024851,-17186.23396,187500.0,-187500.022352,-21377.11899,-20594.696175,-187500.022352,-187500.022352
1680232938.947514,0,-70200.012052,-31072.635182,-187500.022352,-69357.239527,187500.0,-187500.022352,-187500.022352,-187500.022352,-63807.279027,-31446.043425,187500.0,-187500.022352,-20339.171033,-31679.68621,-187500.022352,-187500.022352
1680232938.947558,0,-71422.294846,-26045.683151,-187500.022352,-64813.018121,187500.0,-187500.022352,-187500.022352,-187500.022352,-61065.591701,-22545.087045,187500.0,-187500.022352,-20864.928766,-25582.130323,-187500.022352,-187500.022352
1680232938.947578,0,-70584.283243,-32753.687531,-187500.022352,-69229.432253,187500.0,-187500.022352,-187500.022352,-187500.022352,-62528.178099,-22736.350922,187500.0,-187500.022352,-21132.680313,-24388.346003,-187500.022352,-187500.022352
1680232938.947598,0,-70735.358684,-27137.454109,-187500.022352,-66595.368575,187500.0,-187500.022352,-187500.022352,-187500.022352,-62958.96327,-30950.393492,187500.0,-187500.022352,-20313.175954,-32043.930238,-187500.022352,-187500.022352
1680232938.947618,0,-71286.306833,-29640.916543,-187500.022352,-66388.614939,187500.0,-187500.022352,-187500.022352,-187500.022352,-60751.728505,-16923.31039,187500.0,-187500.022352,-21430.651418,-20404.840458,-187500.022352,-187500.022352
1680232938.947637,0,-70284.814571,-31125.00532,-187500.022352,-69119.282856,187500.0,-187500.022352,-187500.022352,-187500.022352,-63805.200315,-31085.085104,187500.0,-187500.022352,-20404.080499,-31340.409081,-187500.022352,-187500.022352
1680232938.947657,0,-71431.682579,-25991.010784,-187500.022352,-64592.741679,187500.0,-187500.022352,-187500.022352,-187500.022352,-61103.679073,-22395.531523,187500.0,-187500.022352,-20916.695406,-25400.075364,-187500.022352,-187500.022352
1680232938.947677,0,-70588.172446,-32702.882016,-187500.022352,-68990.402697,187500.0,-187500.022352,-187500.022352,-187500.022352,-62478.825447,-22367.413028,187500.0,-187500.022352,-21115.245952,-24041.022246,-187500.022352,-187500.022352
1680232938.947696,0,-70738.398521,-27155.559022,-187500.022352,-66433.184318,187500.0,-187500.022352,-187500.022352,-187500.022352,-62960.550244,-30759.911926,187500.0,-187500.022352,-20307.766832,-31809.818066,-187500.022352,-187500.022352
1680232938.947715,0,-71324.573019,-29587.719391,-187500.022352,-66173.680565,187500.0,-187500.022352,-187500.022352,-187500.022352,-60747.347563,-16735.689847,187500.0,-187500.022352,-21468.001183,-20181.926511,-187500.022352,-187500.022352
1680232938.947735,0,-70286.066268,-31179.096541,-187500.022352,-68992.012023,187500.0,-187500.022352,-187500.022352,-187500.022352,-63810.497679,-30850.68236,187500.0,-187500.022352,-20426.611057,-31059.134729,-187500.022352,-187500.022352
1680232938.947754,0,-71417.064538,-25942.462795,-187500.022352,-64510.509611,187500.0,-187500.022352,-187500.022352,-187500.022352,-61153.746981,-22407.757927,187500.0,-187500.022352,-20900.244522,-25353.315515,-187500.022352,-187500.022352
1680232938.947796,0,-70618.704929,-32690.700315,-187500.022352,-68874.508902,187500.0,-187500.022352,-187500.022352,-187500.022352,-62491.722404,-22190.141343,187500.0,-187500.022352,-21143.006819,-23844.90804,-187500.022352,-187500.022352
1680232938.947816,0,-70739.091425,-27219.485011,-187500.022352,-66419.996789,187500.0,-187500.022352,-187500.022352,-187500.022352,-63023.224535,-30788.589214,187500.0,-187500.022352,-20302.983559,-31768.892022,-187500.022352,-187500.022352
1680232939.416154,0,-71344.376665,-29546.011036,-187500.022352,-66122.606829,187500.0,-187500.022352,-187500.022352,-187500.022352,-60804.523326,-16780.750964,187500.0,-187500.022352,-21453.36079,-20186.352156,-187500.022352,-187500.022352
1680232939.416208,0,-70309.826173,-31255.763025,-187500.022352,-69008.149982,187500.0,-187500.022352,-187500.022352,-187500.022352,-63861.817284,-30834.522049,187500.0,-187500.022352,-20439.440958,-31000.908434,-187500.022352,-187500.022352
1680232939.41624,0,-71406.045128,-25989.736735,-187500.022352,-64558.498807,187500.0,-187500.022352,-187500.022352,-187500.022352,-61254.083962,-22641.981857,187500.0,-187500.022352,-20899.126935,-25509.263636,-187500.022352,-187500.022352
1680232939.416275,3,-70628.115014,-32716.985967,-187500.022352,-68892.189132,187500.0,-187500.022352,-187500.022352,-187500.022352,-62532.268468,-22217.119898,187500.0,-187500.022352,-21153.869766,-23861.493035,-187500.022352,-187500.022352
1680232939.416309,3,-70753.620059,-27323.398271,-187500.022352,-66509.314359,187500.0,-187500.022352,-187500.022352,-187500.022352,-63094.504248,-30991.431295,187500.0,-187500.022352,-20334.410111,-31911.138524,-187500.022352,-187500.022352
1680232939.41633,3,-71356.446607,-29534.388129,-187500.022352,-66140.398817,187500.0,-187500.022352,-187500.022352,-187500.022352,-60877.09944,-16969.891425,187500.0,-187500.022352,-21471.845683,-20331.526736,-187500.022352,-187500.022352
1680232939.41635,3,-70277.729068,-31292.35283,-187500.022352,-69064.87871,187500.0,-187500.022352,-187500.022352,-187500.022352,-63893.377947,-30892.524826,187500.0,-187500.022352,-20460.272784,-31033.318464,-187500.022352,-187500.022352
1680232939.416369,3,-71422.116032,-25997.448086,-187500.022352,-64576.693127,187500.0,-187500.022352,-187500.022352,-187500.022352,-61302.989579,-22872.629508,187500.0,-187500.022352,-20929.525307,-25683.31667,-187500.022352,-187500.022352
1680232939.416461,3,-70661.664982,-32696.332955,-187500.022352,-68844.222289,187500.0,-187500.022352,-187500.022352,-187500.022352,-62529.72037,-22148.097712,187500.0,-187500.022352,-21194.6617,-23760.574908,-187500.022352,-187500.022352
1680232939.416481,3,-70792.869722,-27375.053152,-187500.022352,-66477.753696,187500.0,-187500.022352,-187500.022352,-187500.022352,-63124.500289,-31053.211517,187500.0,-187500.022352,-20345.720094,-31899.292099,-187500.022352,-187500.022352
1680232939.4165,3,-71411.342491,-29489.595233,-187500.022352,-66014.87142,187500.0,-187500.022352,-187500.022352,-187500.022352,-60902.736891,-16938.777797,187500.0,-187500.022352,-21529.714349,-20228.909877,-187500.022352,-187500.022352
1680232939.41652,3,-70370.958194,-31358.469291,-187500.022352,-68941.87706,187500.0,-187500.022352,-187500.022352,-187500.022352,-63880.34688,-30726.227847,187500.0,-187500.022352,-20487.497209,-30792.612528,-187500.022352,-187500.022352
1680232939.41654,3,-71500.861228,-26017.184677,-187500.022352,-64409.166802,187500.0,-187500.022352,-187500.022352,-187500.022352,-61337.232451,-22844.756883,187500.0,-187500.022352,-20962.605889,-25514.225723,-187500.022352,-187500.022352
1680232939.41656,3,-70731.290666,-32691.102647,-187500.022352,-68614.75928,187500.0,-187500.022352,-187500.022352,-187500.022352,-62489.24136,-21857.502682,187500.0,-187500.022352,-21226.378825,-23354.466063,-187500.022352,-187500.022352
1680232939.416579,3,-70832.097034,-27411.307682,-187500.022352,-66269.97188,187500.0,-187500.022352,-187500.022352,-187500.022352,-63103.780222,-30874.934003,187500.0,-187500.022352,-20357.320649,-31543.0947,-187500.022352,-187500.022352
1680232939.416599,3,-71448.446387,-29373.410865,-187500.022352,-65687.396012,187500.0,-187500.022352,-187500.022352,-187500.022352,-60838.877957,-16625.585154,187500.0,-187500.022352,-21533.938829,-19735.338656,-187500.022352,-187500.022352
1680232939.416618,3,-70380.748258,-31355.608267,-187500.022352,-68660.446246,187500.0,-187500.022352,-187500.022352,-187500.022352,-63801.66874,-30320.051947,187500.0,-187500.022352,-20474.399087,-30190.657698,-187500.022352,-187500.022352
1680232939.416638,3,-71543.083673,-25958.779569,-187500.022352,-64071.141371,187500.0,-187500.022352,-187500.022352,-187500.022352,-61287.745689,-22603.738022,187500.0,-187500.022352,-20964.237566,-25014.105441,-187500.022352,-187500.022352
1680232939.416664,3,-70726.239172,-32605.450762,-187500.022352,-68290.234302,187500.0,-187500.022352,-187500.022352,-187500.022352,-62417.715778,-21371.441647,187500.0,-187500.022352,-21280.89473,-22622.692302,-187500.022352,-187500.022352
1680232939.416722,3,-70779.056344,-27372.683868,-187500.022352,-66043.101673,187500.0,-187500.022352,-187500.022352,-187500.022352,-63069.202074,-30654.25523,187500.0,-187500.022352,-20327.793995,-31031.038586,-187500.022352,-187500.022352
1680232939.416742,3,-71454.25784,-29266.010733,-187500.022352,-65373.756334,187500.0,-187500.022352,-187500.022352,-187500.022352,-60777.92475,-16349.250537,187500.0,-187500.022352,-21521.980646,-19177.305004,-187500.022352,-187500.022352
1680232939.416762,3,-70318.342187,-31323.958197,-187500.022352,-68467.28247,187500.0,-187500.022352,-187500.022352,-187500.022352,-63745.923489,-30000.265539,187500.0,-187500.022352,-20459.915156,-29587.562929,-187500.022352,-187500.022352
1680232939.416781,3,-71529.560867,-25910.186876,-187500.022352,-63848.249775,187500.0,-187500.022352,-187500.022352,-187500.022352,-61256.430895,-22500.830591,187500.0,-187500.022352,-20898.121106,-24598.385346,-187500.022352,-187500.022352
1680232939.416801,3,-70701.87577,-32529.007796,-187500.022352,-68067.029782,187500.0,-187500.022352,-187500.022352,-187500.022352,-62335.461358,-21045.307344,187500.0,-187500.022352,-21226.334122,-22016.937675,-187500.022352,-187500.022352
1680232939.416821,3,-70816.361405,-27398.366022,-187500.022352,-65847.970944,187500.0,-187500.022352,-187500.022352,-187500.022352,-63022.598687,-30512.187542,187500.0,-187500.022352,-20295.674538,-30557.00279,-187500.022352,-187500.022352
1680232939.41684,3,-71506.315053,-29226.11287,-187500.022352,-65125.227287,187500.0,-187500.022352,-187500.022352,-187500.022352,-60761.697383,-16123.810842,187500.0,-187500.022352,-21556.178815,-18598.216009,-187500.022352,-187500.022352
1680232939.416859,3,-70392.281758,-31358.670456,-187500.022352,-68296.671605,187500.0,-187500.022352,-187500.022352,-187500.022352,-63750.416189,-29776.94926,187500.0,-187500.022352,-20488.994776,-28989.497303,-187500.022352,-187500.022352
1680232939.416879,3,-71541.541403,-25851.580602,-187500.022352,-63675.671956,187500.0,-187500.022352,-187500.022352,-187500.022352,-61293.355977,-22434.736482,187500.0,-187500.022352,-20910.571028,-24143.996733,-187500.022352,-187500.022352
1680232939.416899,3,-70729.323713,-32489.758133,-187500.022352,-67897.514152,187500.0,-187500.022352,-187500.022352,-187500.022352,-62315.009512,-20736.361532,187500.0,-187500.022352,-21230.983285,-21373.632118,-187500.022352,-187500.022352
1680232939.416942,3,-70884.757743,-27405.853856,-187500.022352,-65732.412426,187500.0,-187500.022352,-187500.022352,-187500.022352,-63043.966954,-30416.432669,187500.0,-187500.022352,-20274.060401,-30104.514075,-187500.022352,-187500.022352
1680232939.416962,3,-71529.046777,-29091.488313,-187500.022352,-64949.676686,187500.0,-187500.022352,-187500.022352,-187500.022352,-60746.118217,-15905.791927,187500.0,-187500.022352,-21542.544251,-18069.060811,-187500.022352,-187500.022352
1680232939.416982,3,-70363.313897,-31309.071935,-187500.022352,-68213.657226,187500.0,-187500.022352,-187500.022352,-187500.022352,-63708.931352,-29552.090711,187500.0,-187500.022352,-20441.340857,-28478.849349,-187500.022352,-187500.022352
1680232939.417002,3,-71574.867854,-25729.517726,-187500.022352,-63538.320486,187500.0,-187500.022352,-187500.022352,-187500.022352,-61273.038241,-22367.971822,187500.0,-187500.022352,-20857.530338,-23777.137551,-187500.022352,-187500.022352
1680232939.417022,3,-70699.327671,-32366.644724,-187500.022352,-67776.457104,187500.0,-187500.022352,-187500.022352,-187500.022352,-62250.323564,-20414.004673,187500.0,-187500.022352,-21205.211723,-20814.279713,-187500.022352,-187500.022352
1680232939.417041,3,-70849.754912,-27362.312658,-187500.022352,-65664.30666,187500.0,-187500.022352,-187500.022352,-187500.022352,-63017.658951,-30360.374494,187500.0,-187500.022352,-20226.406482,-29757.033856,-187500.022352,-187500.022352
1680232939.41706,3,-71536.087577,-28956.193203,-187500.022352,-64768.15817,187500.0,-187500.022352,-187500.022352,-187500.022352,-60679.130039,-15726.016846,187500.0,-187500.022352,-21534.922306,-17608.704282,-187500.022352,-187500.022352
1680232939.41708,3,-70345.812481,-31295.392668,-187500.022352,-68112.269713,187500.0,-187500.022352,-187500.022352,-187500.022352,-63674.733183,-29326.852182,187500.0,-187500.022352,-20445.274764,-27944.083863,-187500.022352,-187500.022352
1680232939.4171,3,-71609.66952,-25664.720018,-187500.022352,-63375.622138,187500.0,-187500.022352,-187500.022352,-187500.022352,-61253.68163,-22344.815415,187500.0,-187500.022352,-20831.579963,-23393.671023,-187500.022352,-187500.022352
1680232939.417119,3,-70734.621076,-32347.176355,-187500.022352,-67608.17082,187500.0,-187500.022352,-187500.022352,-187500.022352,-62223.769691,-20133.87026,187500.0,-187500.022352,-21251.099855,-20171.868226,-187500.022352,-187500.022352
1680232939.417138,3,-70820.13885,-27390.833484,-187500.022352,-65576.106677,187500.0,-187500.022352,-187500.022352,-187500.022352,-63060.753114,-30335.899333,187500.0,-187500.022352,-20230.765072,-29307.339109,-187500.022352,-187500.022352
1680232939.417183,3,-71508.237303,-28887.863921,-187500.022352,-64628.012732,187500.0,-187500.022352,-187500.022352,-187500.022352,-60671.061059,-15637.705104,187500.0,-187500.022352,-21528.999094,-17117.859974,-187500.022352,-187500.022352
1680232939.417203,3,-70327.081719,-31322.035947,-187500.022352,-68056.569166,187500.0,-187500.022352,-187500.022352,-187500.022352,-63661.188026,-29205.683375,187500.0,-187500.022352,-20455.847139,-27432.16186,-187500.022352,-187500.022352
1680232939.417223,3,-71624.622837,-25679.98626,-187500.022352,-63287.533914,187500.0,-187500.022352,-187500.022352,-187500.022352,-61291.47843,-22414.418747,187500.0,-187500.022352,-20867.320403,-23040.334647,-187500.022352,-187500.022352
1680232939.417242,3,-70674.159607,-32293.979203,-187500.022352,-67549.22927,187500.0,-187500.022352,-187500.022352,-187500.022352,-62210.962142,-19988.583921,187500.0,-187500.022352,-21269.249471,-19662.583728,-187500.022352,-187500.022352
1680232939.417262,3,-70759.297402,-27407.753755,-187500.022352,-65591.887008,187500.0,-187500.022352,-187500.022352,-187500.022352,-63072.241911,-30403.51336,187500.0,-187500.022352,-20222.114947,-29015.850009,-187500.022352,-187500.022352
1680232939.417282,3,-71478.040097,-28801.273263,-187500.022352,-64578.324804,187500.0,-187500.022352,-187500.022352,-187500.022352,-60655.593652,-15665.913006,187500.0,-187500.022352,-21508.547247,-16819.620647,-187500.022352,-187500.022352
1680232939.417301,3,-70267.402562,-31352.657837,-187500.022352,-68128.25121,187500.0,-187500.022352,-187500.022352,-187500.022352,-63666.194816,-29194.507503,187500.0,-187500.022352,-20452.91906,-27131.396786,-187500.022352,-187500.022352
1680232939.417321,3,-71557.344086,-25689.306937,-187500.022352,-63396.856296,187500.0,-187500.022352,-187500.022352,-187500.022352,-61333.700875,-22681.365631,187500.0,-187500.022352,-20852.791769,-23018.876972,-187500.022352,-187500.022352
1680232939.417341,3,-70700.892294,-32319.594302,-187500.022352,-67654.215414,187500.0,-187500.022352,-187500.022352,-187500.022352,-62225.200203,-20038.584773,187500.0,-187500.022352,-21298.463201,-19521.499517,-187500.022352,-187500.022352
1680232939.41736,3,-70732.922343,-27502.480448,-187500.022352,-65810.710586,187500.0,-187500.022352,-187500.022352,-187500.022352,-63164.196988,-30707.586492,187500.0,-187500.022352,-20223.791328,-29114.354147,-187500.022352,-187500.022352
1680232939.417379,3,-71474.62028,-28766.315134,-187500.022352,-64733.088283,187500.0,-187500.022352,-187500.022352,-187500.022352,-60710.02015,-15939.833634,187500.0,-187500.022352,-21492.521047,-16976.529893,-187500.022352,-187500.022352
1680232939.417423,3,-70284.926329,-31432.319454,-187500.022352,-68321.973779,187500.0,-187500.022352,-187500.022352,-187500.022352,-63702.270532,-29321.733632,187500.0,-187500.022352,-20445.431226,-27176.994345,-187500.022352,-187500.022352
1680232939.417444,3,-71544.558888,-25686.177693,-187500.022352,-63570.14937,187500.0,-187500.022352,-187500.022352,-187500.022352,-61399.392652,-23019.301655,187500.0,-187500.022352,-20824.382701,-23267.830702,-187500.022352,-187500.022352
1680232939.417463,3,-70688.442372,-32284.45736,-187500.022352,-67752.764255,187500.0,-187500.022352,-187500.022352,-187500.022352,-62187.604569,-20045.84909,187500.0,-187500.022352,-21307.694472,-19513.274075,-187500.022352,-187500.022352
1680232939.417483,3,-70732.944695,-27539.874916,-187500.022352,-65958.142693,187500.0,-187500.022352,-187500.022352,-187500.022352,-63157.69263,-30853.208107,187500.0,-187500.022352,-20211.855496,-29224.525896,-187500.022352,-187500.022352
1680232939.417502,3,-71514.831068,-28703.260863,-187500.022352,-64750.947327,187500.0,-187500.022352,-187500.022352,-187500.022352,-60694.061004,-16015.963675,187500.0,-187500.022352,-21494.890332,-17011.555077,-187500.022352,-187500.022352
1680232939.417521,3,-70251.979858,-31417.612006,-187500.022352,-68396.136868,187500.0,-187500.022352,-187500.022352,-187500.022352,-63663.177331,-29243.748396,187500.0,-187500.022352,-20449.521595,-27102.697146,-187500.022352,-187500.022352
1680232939.417541,3,-71549.051589,-25670.799693,-187500.022352,-63582.599292,187500.0,-187500.022352,-187500.022352,-187500.022352,-61376.54917,-23113.357796,187500.0,-187500.022352,-20768.928023,-23336.964647,-187500.022352,-187500.022352
1680232939.417561,3,-70692.13041,-32232.042519,-187500.022352,-67744.896441,187500.0,-187500.022352,-187500.022352,-187500.022352,-62129.557089,-19876.042888,187500.0,-187500.022352,-21310.130812,-19324.491242,-187500.022352,-187500.022352
1680232939.41758,3,-70691.281043,-27568.328687,-187500.022352,-66024.952057,187500.0,-187500.022352,-187500.022352,-187500.022352,-63138.671295,-30898.693907,187500.0,-187500.022352,-20178.372583,-29242.809623,-187500.022352,-187500.022352
1680232939.521236,3,-71510.517181,-28627.846077,-187500.022352,-64731.657771,187500.0,-187500.022352,-187500.022352,-187500.022352,-60670.68108,-16002.418518,187500.0,-187500.022352,-21469.476398,-16960.615451,-187500.022352,-187500.022352
1680232939.52134,3,-70259.17712,-31450.312609,-187500.022352,-68478.726563,187500.0,-187500.022352,-187500.022352,-187500.022352,-63619.613781,-29151.838023,187500.0,-187500.022352,-20444.827729,-26996.951043,-187500.022352,-187500.022352
1680232939.521363,3,-71539.239173,-25665.904661,-187500.022352,-63647.911089,187500.0,-187500.022352,-187500.022352,-187500.022352,-61415.463557,-23290.36126,187500.0,-187500.022352,-20791.525637,-23447.985762,-187500.022352,-187500.022352
1680232939.521385,3,-70662.000258,-32159.667571,-187500.022352,-67812.041081,187500.0,-187500.022352,-187500.022352,-187500.022352,-62075.957605,-19785.853599,187500.0,-187500.022352,-21294.641053,-19240.739255,-187500.022352,-187500.022352
1680232939.521405,3,-70720.360663,-27643.028217,-187500.022352,-66140.912907,187500.0,-187500.022352,-187500.022352,-187500.022352,-63150.093037,-31009.156228,187500.0,-187500.022352,-20199.025595,-29331.478993,-187500.022352,-187500.022352
1680232939.521425,3,-71461.008067,-28510.477067,-187500.022352,-64766.302975,187500.0,-187500.022352,-187500.022352,-187500.022352,-60666.769524,-16105.236543,187500.0,-187500.022352,-21494.666814,-17025.055531,-187500.022352,-187500.022352
1680232939.521446,3,-70224.889544,-31428.117326,-187500.022352,-68582.371602,187500.0,-187500.022352,-187500.022352,-187500.022352,-63563.533254,-29081.340621,187500.0,-187500.022352,-20441.206746,-26964.093979,-187500.022352,-187500.022352
1680232939.521466,3,-71531.63958,-25639.931934,-187500.022352,-63693.866276,187500.0,-187500.022352,-187500.022352,-187500.022352,-61399.906743,-23437.70396,187500.0,-187500.022352,-20742.597668,-23593.719136,-187500.022352,-187500.022352
1680232939.521486,3,-70683.212064,-32077.927241,-187500.022352,-67806.028462,187500.0,-187500.022352,-187500.022352,-187500.022352,-62011.763395,-19631.894783,187500.0,-187500.022352,-21293.545818,-19106.852306,-187500.022352,-187500.022352
1680232939.521505,3,-70706.99432,-27694.817209,-187500.022352,-66188.790344,187500.0,-187500.022352,-187500.022352,-187500.022352,-63130.557612,-31011.503161,187500.0,-187500.022352,-20193.884694,-29342.677217,-187500.022352,-187500.022352
1680232939.521525,3,-71529.382054,-28491.366326,-187500.022352,-64701.460564,187500.0,-187500.022352,-187500.022352,-187500.022352,-60651.145655,-16083.778868,187500.0,-187500.022352,-21511.743547,-16966.404553,-187500.022352,-187500.022352
1680232939.521544,3,-70218.94398,-31444.4341,-187500.022352,-68607.338501,187500.0,-187500.022352,-187500.022352,-187500.022352,-63525.065902,-28930.689863,187500.0,-187500.022352,-20463.536139,-26803.608454,-187500.022352,-187500.022352
1680232939.605581,3,-71484.253881,-25627.102033,-187500.022352,-63727.818576,187500.0,-187500.022352,-187500.022352,-187500.022352,-61407.573391,-23531.670693,187500.0,-187500.022352,-20732.069997,-23639.674323,-187500.022352,-187500.022352
1680232939.605621,3,-70669.018706,-32047.171241,-187500.022352,-67841.478329,187500.0,-187500.022352,-187500.022352,-187500.022352,-61961.606081,-19528.20504,187500.0,-187500.022352,-21273.228082,-18997.060537,-187500.022352,-187500.022352
1680232939.605643,3,-70664.727171,-27723.718014,-187500.022352,-66308.550991,187500.0,-187500.022352,-187500.022352,-187500.022352,-63109.077586,-31062.085159,187500.0,-187500.022352,-20138.765292,-29401.14938,-187500.022352,-187500.022352
1680232939.605669,3,-71476.833102,-28416.935017,-187500.022352,-64767.375859,187500.0,-187500.022352,-187500.022352,-187500.022352,-60636.549966,-16157.539625,187500.0,-187500.022352,-21458.702857,-17030.442301,-187500.022352,-187500.022352
1680232939.605699,3,-70187.539779,-31438.443832,-187500.022352,-68753.295392,187500.0,-187500.022352,-187500.022352,-187500.022352,-63485.168038,-28930.667511,187500.0,-187500.022352,-20456.964726,-26855.106873,-187500.022352,-187500.022352
1680232939.605721,3,-71481.102286,-25670.866748,-187500.022352,-63847.66863,187500.0,-187500.022352,-187500.022352,-187500.022352,-61448.231214,-23729.953018,187500.0,-187500.022352,-20746.576279,-23852.664095,-187500.022352,-187500.022352
1680232939.605741,3,-70621.208325,-31991.403638,-187500.022352,-67984.082459,187500.0,-187500.022352,-187500.022352,-187500.022352,-61994.083165,-19571.165093,187500.0,-187500.022352,-21313.572981,-19093.262445,-187500.022352,-187500.022352
1680232939.605762,3,-70619.129612,-27755.524547,-187500.022352,-66530.704979,187500.0,-187500.022352,-187500.022352,-187500.022352,-63167.773267,-31247.157603,187500.0,-187500.022352,-20153.405685,-29689.643346,-187500.022352,-187500.022352
1680232939.605782,3,-71440.690332,-28384.994374,-187500.022352,-64957.432742,187500.0,-187500.022352,-187500.022352,-187500.022352,-60735.568194,-16407.387424,187500.0,-187500.022352,-21470.236357,-17372.468695,-187500.022352,-187500.022352
1680232939.605801,3,-70164.584537,-31475.078341,-187500.022352,-69036.603753,187500.0,-187500.022352,-187500.022352,-187500.022352,-63538.231079,-29075.506815,187500.0,-187500.022352,-20460.898633,-27177.620194,-187500.022352,-187500.022352
1680232939.645779,3,-71469.412323,-25749.05315,-187500.022352,-64121.768072,187500.0,-187500.022352,-187500.022352,-187500.022352,-61546.489483,-24093.459438,187500.0,-187500.022352,-20730.885354,-24386.334346,-187500.022352,-187500.022352
1680232939.645818,3,-70628.696159,-31996.388077,-187500.022352,-68265.312107,187500.0,-187500.022352,-187500.022352,-187500.022352,-62052.152998,-19789.184009,187500.0,-187500.022352,-21328.526298,-19509.809555,-187500.022352,-187500.022352
1680232939.64584,3,-70614.212229,-27854.721588,-187500.022352,-66862.158997,187500.0,-187500.022352,-187500.022352,-187500.022352,-63225.708988,-31566.251107,187500.0,-187500.022352,-20161.027629,-30258.986981,-187500.022352,-187500.022352
1680232939.645861,3,-71465.076085,-28411.950578,-187500.022352,-65197.624588,187500.0,-187500.022352,-187500.022352,-187500.022352,-60782.596264,-16738.729684,187500.0,-187500.022352,-21459.37341,-17932.134024,-187500.022352,-187500.022352
1680232939.674843,3,-70185.88575,-31524.721566,-187500.022352,-69320.470908,187500.0,-187500.022352,-187500.022352,-187500.022352,-63566.059001,-29232.125489,187500.0,-187500.022352,-20458.506996,-27633.014635,-187500.022352,-187500.022352
1680232940.074556,3,-71427.502802,-25786.581729,-187500.022352,-64376.913235,187500.0,-187500.022352,-187500.022352,-187500.022352,-61605.00635,-24404.148686,187500.0,-187500.022352,-20697.827124,-24979.773161,-187500.022352,-187500.022352
1680232940.074602,3,-70610.725356,-31928.975216,-187500.022352,-68465.22611,187500.0,-187500.022352,-187500.022352,-187500.022352,-62039.010172,-19882.413135,187500.0,-187500.022352,-21310.10846,-19924.903801,-187500.022352,-187500.022352
1680232940.074637,3,-70575.119028,-27893.501865,-187500.022352,-67116.566553,187500.0,-187500.022352,-187500.022352,-187500.022352,-63223.719683,-31667.348047,187500.0,-187500.022352,-20152.131635,-30716.415431,-187500.022352,-187500.022352
1680232940.074671,3,-71445.853585,-28361.457987,-187500.022352,-65381.78061,187500.0,-187500.022352,-187500.022352,-187500.022352,-60824.43873,-16960.369582,187500.0,-187500.022352,-21457.920546,-18456.036562,-187500.022352,-187500.022352
1680232940.074708,3,-70131.861583,-31468.998667,-187500.022352,-69548.838681,187500.0,-187500.022352,-187500.022352,-187500.022352,-63540.399199,-29212.992396,187500.0,-187500.022352,-20463.871415,-27998.085677,-187500.022352,-187500.022352
1680232940.074725,3,-71356.245441,-25794.606006,-187500.022352,-64609.840764,187500.0,-187500.022352,-187500.022352,-187500.022352,-61628.475681,-24589.221131,187500.0,-187500.022352,-20707.080747,-25507.363738,-187500.022352,-187500.022352
1680232940.074787,3,-70626.215115,-31878.549681,-187500.022352,-68647.035199,187500.0,-187500.022352,-187500.022352,-187500.022352,-62056.958623,-19981.252549,187500.0,-187500.022352,-21323.407748,-20368.831798,-187500.022352,-187500.022352
1680232940.074804,3,-70527.621571,-27935.72431,-187500.022352,-67371.711716,187500.0,-187500.022352,-187500.022352,-187500.022352,-63252.776951,-31734.492688,187500.0,-187500.022352,-20150.946993,-31167.384227,-187500.022352,-187500.022352
1680232940.074829,3,-71371.623441,-28314.541675,-187500.022352,-65590.210627,187500.0,-187500.022352,-187500.022352,-187500.022352,-60881.480382,-17216.811146,187500.0,-187500.022352,-21420.280209,-19037.874822,-187500.022352,-187500.022352
1680232940.074847,3,-70143.708008,-31432.073585,-187500.022352,-69744.259983,187500.0,-187500.022352,-187500.022352,-187500.022352,-63523.63539,-29223.050681,187500.0,-187500.022352,-20464.161988,-28411.458839,-187500.022352,-187500.022352
1680232940.074864,3,-71352.088017,-25855.872137,-187500.022352,-64805.306769,187500.0,-187500.022352,-187500.022352,-187500.022352,-61697.408461,-24777.199301,187500.0,-187500.022352,-20704.17502,-26035.334293,-187500.022352,-187500.022352
1680232940.074881,3,-70580.595205,-31754.206926,-187500.022352,-68776.429448,187500.0,-187500.022352,-187500.022352,-187500.022352,-62078.483352,-20030.515794,187500.0,-187500.022352,-21328.615705,-20776.639375,-187500.022352,-187500.022352
1680232940.074898,3,-70578.36003,-28005.394698,-187500.022352,-67498.311996,187500.0,-187500.022352,-187500.022352,-187500.022352,-63235.901384,-31663.995286,187500.0,-187500.022352,-20176.182112,-31500.984013,-187500.022352,-187500.022352
1680232940.074914,3,-71406.000424,-28313.312329,-187500.022352,-65637.953953,187500.0,-187500.022352,-187500.022352,-187500.022352,-60948.222691,-17328.122834,187500.0,-187500.022352,-21447.45993,-19423.77769,-187500.022352,-187500.022352
1680232940.074932,3,-70172.653517,-31408.358384,-187500.022352,-69796.317195,187500.0,-187500.022352,-187500.022352,-187500.022352,-63495.896875,-29003.087163,187500.0,-187500.022352,-20487.76543,-28558.823891,-187500.022352,-187500.022352
1680232940.074949,3,-71354.747874,-25935.913734,-187500.022352,-64859.688563,187500.0,-187500.022352,-187500.022352,-187500.022352,-61726.398674,-24783.256624,187500.0,-187500.022352,-20701.023424,-26324.521163,-187500.022352,-187500.022352
1680232940.074986,3,-70626.52804,-31636.860268,-187500.022352,-68726.719168,187500.0,-187500.022352,-187500.022352,-187500.022352,-62063.84296,-19881.854341,187500.0,-187500.022352,-21303.44764,-20889.180409,-187500.022352,-187500.022352
1680232940.075003,3,-70554.801292,-28015.0283,-187500.022352,-67545.38477,187500.0,-187500.022352,-187500.022352,-187500.022352,-63203.379596,-31426.552704,187500.0,-187500.022352,-20165.922662,-31554.382331,-187500.022352,-187500.022352
1680232940.07502,3,-71390.711831,-28260.495157,-187500.022352,-65587.506066,187500.0,-187500.022352,-187500.022352,-187500.022352,-60981.549142,-17361.963375,187500.0,-187500.022352,-21440.754407,-19621.590629,-187500.022352,-187500.022352
1680232940.075037,3,-70167.087932,-31364.750131,-187500.022352,-69765.896471,187500.0,-187500.022352,-187500.022352,-187500.022352,-63448.444122,-28662.781854,187500.0,-187500.022352,-20522.142413,-28455.268258,-187500.022352,-187500.022352
1680232940.075054,3,-71368.337735,-26030.573372,-187500.022352,-64887.874113,187500.0,-187500.022352,-187500.022352,-187500.022352,-61779.439363,-24798.142886,187500.0,-187500.022352,-20723.933962,-26469.762799,-187500.022352,-187500.022352
1680232940.075071,3,-70670.337459,-31561.870165,-187500.022352,-68664.424856,187500.0,-187500.022352,-187500.022352,-187500.022352,-62083.244274,-19774.767134,187500.0,-187500.022352,-21350.408655,-20919.869354,-187500.022352,-187500.022352
1680232940.075089,3,-70604.042185,-28161.789854,-187500.022352,-67597.196114,187500.0,-187500.022352,-187500.022352,-187500.022352,-63241.779893,-31253.326685,187500.0,-187500.022352,-20203.674758,-31525.503877,-187500.022352,-187500.022352
1680232940.075105,3,-71423.434785,-28260.048122,-187500.022352,-65585.941444,187500.0,-187500.022352,-187500.022352,-187500.022352,-61093.307864,-17557.116456,187500.0,-187500.022352,-21451.997334,-19871.036097,-187500.022352,-187500.022352
1680232940.075123,3,-70193.597101,-31337.816279,-187500.022352,-69775.418314,187500.0,-187500.022352,-187500.022352,-187500.022352,-63456.066067,-28407.904912,187500.0,-187500.022352,-20551.557309,-28358.641667,-187500.022352,-187500.022352
1680232940.075139,3,-71391.918825,-26192.400002,-187500.022352,-64998.403489,187500.0,-187500.022352,-187500.022352,-187500.022352,-61878.457591,-24938.042454,187500.0,-187500.022352,-20728.918401,-26660.736103,-187500.022352,-187500.022352
1680232940.075156,3,-70670.829197,-31499.374688,-187500.022352,-68677.254758,187500.0,-187500.022352,-187500.022352,-187500.022352,-62143.214004,-19856.529815,187500.0,-187500.022352,-21372.492179,-21055.790312,-187500.022352,-187500.022352
1680232940.075194,3,-70587.948929,-28281.841073,-187500.022352,-67736.000447,187500.0,-187500.022352,-187500.022352,-187500.022352,-63254.498035,-31201.24712,187500.0,-187500.022352,-20217.354026,-31575.39297,-187500.022352,-187500.022352
1680232940.075211,3,-71407.363881,-28270.240518,-187500.022352,-65700.382376,187500.0,-187500.022352,-187500.022352,-187500.022352,-61152.629394,-17965.102847,187500.0,-187500.022352,-21436.708741,-20274.373326,-187500.022352,-187500.022352
1680232940.075228,3,-70186.690412,-31318.99611,-187500.022352,-69888.048755,187500.0,-187500.022352,-187500.022352,-187500.022352,-63418.850412,-28405.557979,187500.0,-187500.022352,-20553.412503,-28469.193395,-187500.022352,-187500.022352
1680232940.075245,3,-71321.935513,-26286.187921,-187500.022352,-65212.421443,187500.0,-187500.022352,-187500.022352,-187500.022352,-61896.048414,-25235.790042,187500.0,-187500.022352,-20704.622055,-27025.248352,-187500.022352,-187500.022352
1680232940.075262,3,-70650.019723,-31423.959902,-187500.022352,-68805.576122,187500.0,-187500.022352,-187500.022352,-187500.022352,-62109.239353,-20133.982019,187500.0,-187500.022352,-21314.757623,-21440.620296,-187500.022352,-187500.022352
1680232940.075278,3,-70577.868292,-28310.875989,-187500.022352,-67926.593772,187500.0,-187500.022352,-187500.022352,-187500.022352,-63221.305695,-31300.578272,187500.0,-187500.022352,-20192.565941,-31841.803413,-187500.022352,-187500.022352
1680232940.075295,3,-71392.36586,-28276.119027,-187500.022352,-65890.796887,187500.0,-187500.022352,-187500.022352,-187500.022352,-61176.009318,-18348.770541,187500.0,-187500.022352,-21393.502819,-20782.897864,-187500.022352,-187500.022352
1680232940.075312,3,-70203.856552,-31290.497636,-187500.022352,-70039.235954,187500.0,-187500.022352,-187500.022352,-187500.022352,-63385.523961,-28530.258361,187500.0,-187500.022352,-20562.554367,-28809.766926,-187500.022352,-187500.022352
1680232940.075329,3,-71349.808139,-26375.371382,-187500.022352,-65406.50164,187500.0,-187500.022352,-187500.022352,-187500.022352,-61927.474967,-25501.999319,187500.0,-187500.022352,-20683.186732,-27470.562157,-187500.022352,-187500.022352
1680232940.075346,3,-70672.01384,-31379.301116,-187500.022352,-68922.162822,187500.0,-187500.022352,-187500.022352,-187500.022352,-62134.228603,-20403.946388,187500.0,-187500.022352,-21312.075414,-21906.609464,-187500.022352,-187500.022352
1680232940.075382,3,-70582.919786,-28386.938976,-187500.022352,-68093.382489,187500.0,-187500.022352,-187500.022352,-187500.022352,-63225.373712,-31406.659652,187500.0,-187500.022352,-20229.111043,-32176.18551,-187500.022352,-187500.022352
1680232940.075399,3,-71374.819741,-28282.533977,-187500.022352,-66030.025903,187500.0,-187500.022352,-187500.022352,-187500.022352,-61210.36395,-18705.459679,187500.0,-187500.022352,-21376.873121,-21335.701208,-187500.022352,-187500.022352
