Timestamp,Label,EXG Channel 0 (Fp1),EXG Channel 1 (Fp2),EXG Channel 2 (C3),EXG Channel 3 (C4),EXG Channel 4 (P7),EXG Channel 5 (P8),EXG Channel 6 (O1),EXG Channel 7 (O2),EXG Channel 8 (F7),EXG Channel 9 (F8),EXG Channel 10 (F3),EXG Channel 11 (F4),EXG Channel 12 (T7),EXG Channel 13 (T8),EXG Channel 14 (P3),EXG Channel 15 (P4)
1680234180.847309,0,-89183.460377,-76523.655835,-187500.022352,-187500.022352,187500.0,187500.0,-187500.022352,187500.0,-63281.431887,-54020.388904,-187500.022352,-98207.261945,-179714.082743,-187500.022352,-187500.022352,-187500.022352
1680234180.847337,0,-89184.734426,-76451.303238,-187500.022352,-187500.022352,187500.0,187500.0,-187500.022352,187500.0,-63230.84989,-54113.930954,-187500.022352,-98117.653801,-179792.96205,-187500.022352,-187500.022352,-187500.022352
1680234180.847355,0,-89209.343697,-76552.04255,-187500.022352,-187500.022352,187500.0,187500.0,-187500.022352,187500.0,-63273.452315,-53417.584707,-187500.022352,-97943.846636,-179316.825189,-187500.022352,-187500.022352,-187500.022352
1680234180.847375,0,-89175.123176,-76480.606375,-187500.022352,-187500.022352,187500.0,187500.0,-187500.022352,187500.0,-63251.189977,-54424.284926,-187500.022352,-98312.896289,-179592.533957,-187500.022352,-187500.022352,-187500.022352
1680234180.847393,0,-89209.969546,-76525.376919,-187500.022352,-187500.022352,187500.0,187500.0,-187500.022352,187500.0,-63235.588459,-53488.685607,-187500.022352,-97877.26079,-179183.631144,-187500.022352,-187500.022352,-187500.022352
1680234180.847412,0,-89199.687743,-76549.159175,-187500.022352,-187500.022352,187500.0,187500.0,-187500.022352,187500.0,-63286.438678,-53998.640656,-187500.022352,-98205.764378,-179102.762533,-187500.022352,-187500.022352,-187500.022352
1680234180.847429,0,-89189.808272,-76473.185596,-187500.022352,-187500.022352,187500.0,187500.0,-187500.022352,187500.0,-63242.964535,-54101.70455,-187500.022352,-98118.883147,-179143.442707,-187500.022352,-187500.022352,-187500.022352
1680234180.847447,0,-89210.975374,-76564.693637,-187500.022352,-187500.022352,187500.0,187500.0,-187500.022352,187500.0,-63278.90614,-53417.87528,-187500.022352,-97942.259662,-178667.350551,-187500.022352,-187500.022352,-187500.022352
1680234180.847467,0,-89187.528394,-76490.195273,-187500.022352,-187500.022352,187500.0,187500.0,-187500.022352,187500.0,-63268.512579,-54420.082798,-187500.022352,-98312.918641,-178936.622016,-187500.022352,-187500.022352,-187500.022352
1680234180.847489,0,-89214.551653,-76528.752032,-187500.022352,-187500.022352,187500.0,187500.0,-187500.022352,187500.0,-63245.266765,-53509.450377,-187500.022352,-97890.85065,-178541.934912,-187500.022352,-187500.022352,-187500.022352
1680234180.847515,0,-89179.839394,-76531.903628,-187500.022352,-187500.022352,187500.0,187500.0,-187500.022352,187500.0,-63289.769088,-54018.243136,-187500.022352,-98219.577756,-178492.112874,-187500.022352,-187500.022352,-187500.022352
1680234180.847675,0,-89191.372894,-76476.068971,-187500.022352,-187500.022352,187500.0,187500.0,-187500.022352,187500.0,-63227.832404,-54133.578138,-187500.022352,-98128.472045,-178579.307029,-187500.022352,-187500.022352,-187500.022352
1680234180.847694,0,-89219.849017,-76575.020143,-187500.022352,-187500.022352,187500.0,187500.0,-187500.022352,187500.0,-63273.407611,-53430.191091,-187500.022352,-97942.080848,-178109.361602,-187500.022352,-187500.022352,-187500.022352
1680234180.847714,0,-89192.713999,-76501.125276,-187500.022352,-187500.022352,187500.0,187500.0,-187500.022352,187500.0,-63283.600007,-54404.86126,-187500.022352,-98319.691219,-178348.122936,-187500.022352,-187500.022352,-187500.022352
1680234180.847732,0,-89225.861636,-76546.767538,-187500.022352,-187500.022352,187500.0,187500.0,-187500.022352,187500.0,-63248.708933,-53525.029543,-187500.022352,-97910.07315,-177979.654429,-187500.022352,-187500.022352,-187500.022352
1680234180.847749,0,-89197.72079,-76555.417664,-187500.022352,-187500.022352,187500.0,187500.0,-187500.022352,187500.0,-63282.057736,-54006.977857,-187500.022352,-98230.328945,-177916.89073,-187500.022352,-187500.022352,-187500.022352
1680234180.847771,0,-89210.327174,-76503.136933,-187500.022352,-187500.022352,187500.0,187500.0,-187500.022352,187500.0,-63244.730323,-54132.996992,-187500.022352,-98151.427287,-178002.85554,-187500.022352,-187500.022352,-187500.022352
1680234180.84779,0,-89242.647796,-76611.386432,-187500.022352,-187500.022352,187500.0,187500.0,-187500.022352,187500.0,-63313.506641,-53425.832501,-187500.022352,-97972.322759,-177527.948025,-187500.022352,-187500.022352,-187500.022352
1680234180.847808,0,-89198.212528,-76517.330291,-187500.022352,-187500.022352,187500.0,187500.0,-187500.022352,187500.0,-63291.087841,-54423.033228,-187500.022352,-98360.594912,-177794.112598,-187500.022352,-187500.022352,-187500.022352
1680234180.847826,0,-89236.456363,-76561.184414,-187500.022352,-187500.022352,187500.0,187500.0,-187500.022352,187500.0,-63266.322108,-53537.077133,-187500.022352,-97945.791238,-177446.811193,-187500.022352,-187500.022352,-187500.022352
1680234180.847843,0,-89229.50497,-76588.118266,-187500.022352,-187500.022352,187500.0,187500.0,-187500.022352,187500.0,-63333.131472,-53975.350139,-187500.022352,-98241.817742,-177359.818203,-187500.022352,-187500.022352,-187500.022352
1680234180.847861,0,-89227.917996,-76521.577122,-187500.022352,-187500.022352,187500.0,187500.0,-187500.022352,187500.0,-63272.670003,-54115.294411,-187500.022352,-98179.232857,-177453.270847,-187500.022352,-187500.022352,-187500.022352
1680234180.847942,0,-89247.69929,-76602.356327,-187500.022352,-187500.022352,187500.0,187500.0,-187500.022352,187500.0,-63312.47846,-53407.034684,-187500.022352,-97986.516116,-177000.133932,-187500.022352,-187500.022352,-187500.022352
1680234180.84796,0,-89198.301935,-76509.75305,-187500.022352,-187500.022352,187500.0,187500.0,-187500.022352,187500.0,-63295.982873,-54365.499838,-187500.022352,-98345.798057,-177253.580362,-187500.022352,-187500.022352,-187500.022352
1680234180.847979,0,-89236.612825,-76552.578992,-187500.022352,-187500.022352,187500.0,187500.0,-187500.022352,187500.0,-63274.391088,-53480.169592,-187500.022352,-97931.821398,-176883.457826,-187500.022352,-187500.022352,-187500.022352
1680234180.847997,0,-89233.394174,-76580.406914,-187500.022352,-187500.022352,187500.0,187500.0,-187500.022352,187500.0,-63326.560059,-53886.770175,-187500.022352,-98233.949928,-176755.337626,-187500.022352,-187500.022352,-187500.022352
1680234180.848014,0,-89226.621595,-76515.095117,-187500.022352,-187500.022352,187500.0,187500.0,-187500.022352,187500.0,-63264.310451,-54040.371363,-187500.022352,-98179.724596,-176790.787493,-187500.022352,-187500.022352,-187500.022352
1680234180.848038,0,-89253.220171,-76605.463219,-187500.022352,-187500.022352,187500.0,187500.0,-187500.022352,187500.0,-63290.529047,-53349.747163,-187500.022352,-97995.859146,-176297.5739,-187500.022352,-187500.022352,-187500.022352
1680234180.848062,0,-89221.994784,-76525.823954,-187500.022352,-187500.022352,187500.0,187500.0,-187500.022352,187500.0,-63291.601931,-54300.344503,-187500.022352,-98370.116755,-176468.452986,-187500.022352,-187500.022352,-187500.022352
1680234180.848086,0,-89265.200706,-76570.303925,-187500.022352,-187500.022352,187500.0,187500.0,-187500.022352,187500.0,-63269.965442,-53455.135638,-187500.022352,-97969.618198,-176056.040949,-187500.022352,-187500.022352,-187500.022352
1680234180.848104,0,-89255.90238,-76590.040516,-187500.022352,-187500.022352,187500.0,187500.0,-187500.022352,187500.0,-63321.083882,-53869.40287,-187500.022352,-98258.58155,-175871.169671,-187500.022352,-187500.022352,-187500.022352
1680234180.848121,0,-89267.547639,-76532.618884,-187500.022352,-187500.022352,187500.0,187500.0,-187500.022352,187500.0,-63272.781762,-54049.535578,-187500.022352,-98203.953887,-175880.020962,-187500.022352,-187500.022352,-187500.022352
1680234180.848172,0,-89296.00141,-76616.057946,-187500.022352,-187500.022352,187500.0,187500.0,-187500.022352,187500.0,-63303.515411,-53355.402154,-187500.022352,-98012.846471,-175350.955171,-187500.022352,-187500.022352,-187500.022352
1680234180.848191,0,-89280.712817,-76562.838443,-187500.022352,-187500.022352,187500.0,187500.0,-187500.022352,187500.0,-63294.28414,-54309.91105,-187500.022352,-98387.707578,-175488.217233,-187500.022352,-187500.022352,-187500.022352
1680234180.848212,0,-89325.818637,-76606.424344,-187500.022352,-187500.022352,187500.0,187500.0,-187500.022352,187500.0,-63288.360928,-53499.481499,-187500.022352,-98004.799843,-175060.561307,-187500.022352,-187500.022352,-187500.022352
1680234180.84823,0,-89309.658326,-76625.110403,-187500.022352,-187500.022352,187500.0,187500.0,-187500.022352,187500.0,-63338.719408,-53917.347362,-187500.022352,-98288.68935,-174877.075836,-187500.022352,-187500.022352,-187500.022352
1680234180.848248,0,-89290.949916,-76540.062015,-187500.022352,-187500.022352,187500.0,187500.0,-187500.022352,187500.0,-63265.763314,-54123.60926,-187500.022352,-98244.030564,-174906.624842,-187500.022352,-187500.022352,-187500.022352
1680234180.848265,0,-89331.898312,-76637.225048,-187500.022352,-187500.022352,187500.0,187500.0,-187500.022352,187500.0,-63308.455146,-53419.819882,-187500.022352,-98028.492693,-174391.573595,-187500.022352,-187500.022352,-187500.022352
1680234180.848283,0,-89288.245355,-76569.096931,-187500.022352,-187500.022352,187500.0,187500.0,-187500.022352,187500.0,-63309.818603,-54340.555291,-187500.022352,-98386.880563,-174506.796838,-187500.022352,-187500.022352,-187500.022352
1680234180.848301,0,-89321.840027,-76620.304778,-187500.022352,-187500.022352,187500.0,187500.0,-187500.022352,187500.0,-63281.141315,-53543.603843,-187500.022352,-98005.693913,-174122.480943,-187500.022352,-187500.022352,-187500.022352
1680234180.848318,0,-89305.791474,-76648.557383,-187500.022352,-187500.022352,187500.0,187500.0,-187500.022352,187500.0,-63326.895336,-53920.610716,-187500.022352,-98271.299693,-173926.322034,-187500.022352,-187500.022352,-187500.022352
1680234180.848335,0,-89319.336631,-76601.194036,-187500.022352,-187500.022352,187500.0,187500.0,-187500.022352,187500.0,-63275.843951,-54100.855184,-187500.022352,-98213.542785,-173917.180171,-187500.022352,-187500.022352,-187500.022352
1680234180.848406,0,-89335.608701,-76683.649621,-187500.022352,-187500.022352,187500.0,187500.0,-187500.022352,187500.0,-63319.273391,-53400.19505,-187500.022352,-98024.983469,-173390.371906,-187500.022352,-187500.022352,-187500.022352
1680234180.848425,0,-89304.472721,-76619.589522,-187500.022352,-187500.022352,187500.0,187500.0,-187500.022352,187500.0,-63324.727216,-54340.689402,-187500.022352,-98379.482136,-173519.117954,-187500.022352,-187500.022352,-187500.022352
1680234180.848443,0,-89321.147123,-76638.588505,-187500.022352,-187500.022352,187500.0,187500.0,-187500.022352,187500.0,-63300.632036,-53558.668918,-187500.022352,-98007.213832,-173135.003225,-187500.022352,-187500.022352,-187500.022352
1680234180.848477,0,-89314.598061,-76675.647697,-187500.022352,-187500.022352,187500.0,187500.0,-187500.022352,187500.0,-63334.159652,-53921.124807,-187500.022352,-98262.135477,-172944.499307,-187500.022352,-187500.022352,-187500.022352
1680234180.848495,0,-89296.940183,-76603.026879,-187500.022352,-187500.022352,187500.0,187500.0,-187500.022352,187500.0,-63285.075222,-54129.621879,-187500.022352,-98230.977146,-172942.018264,-187500.022352,-187500.022352,-187500.022352
1680234180.848514,0,-89330.534855,-76699.429953,-187500.022352,-187500.022352,187500.0,187500.0,-187500.022352,187500.0,-63323.855498,-53419.819882,-187500.022352,-98020.781341,-172440.266304,-187500.022352,-187500.022352,-187500.022352
1680234180.848533,0,-89283.104453,-76614.739193,-187500.022352,-187500.022352,187500.0,187500.0,-187500.022352,187500.0,-63324.77192,-54363.59994,-187500.022352,-98392.580258,-172566.307791,-187500.022352,-187500.022352,-187500.022352
1680234180.848551,0,-89318.666079,-76643.215316,-187500.022352,-187500.022352,187500.0,187500.0,-187500.022352,187500.0,-63277.185056,-53552.768058,-187500.022352,-97996.976733,-172197.436952,-187500.022352,-187500.022352,-187500.022352
1680234180.848571,0,-89305.880881,-76673.032543,-187500.022352,-187500.022352,187500.0,187500.0,-187500.022352,187500.0,-63347.682458,-53909.926583,-187500.022352,-98264.325948,-171994.70663,-187500.022352,-187500.022352,-187500.022352
1680234180.848593,0,-89307.423151,-76610.157086,-187500.022352,-187500.022352,187500.0,187500.0,-187500.022352,187500.0,-63295.804059,-54156.868655,-187500.022352,-98248.657375,-172062.991209,-187500.022352,-187500.022352,-187500.022352
1680234180.848611,0,-89332.457105,-76700.346375,-187500.022352,-187500.022352,187500.0,187500.0,-187500.022352,187500.0,-63340.775769,-53410.476853,-187500.022352,-98042.820161,-171576.10316,-187500.022352,-187500.022352,-187500.022352
1680234180.848652,0,-89294.302677,-76622.472897,-187500.022352,-187500.022352,187500.0,187500.0,-187500.022352,187500.0,-63347.861272,-54353.519303,-187500.022352,-98407.377113,-171701.943481,-187500.022352,-187500.022352,-187500.022352
1680234180.84867,0,-89317.90612,-76640.823679,-187500.022352,-187500.022352,187500.0,187500.0,-187500.022352,187500.0,-63305.884696,-53546.822494,-187500.022352,-98020.021381,-171364.298029,-187500.022352,-187500.022352,-187500.022352
1680234180.848687,0,-89294.101512,-76657.87806,-187500.022352,-187500.022352,187500.0,187500.0,-187500.022352,187500.0,-63348.420065,-53862.451477,-187500.022352,-98276.77587,-171185.104094,-187500.022352,-187500.022352,-187500.022352
1680234180.848705,0,-89290.324067,-76591.783952,-187500.022352,-187500.022352,187500.0,187500.0,-187500.022352,187500.0,-63296.742832,-54094.194364,-187500.022352,-98238.085,-171240.603476,-187500.022352,-187500.022352,-187500.022352
1680234180.848724,0,-89326.466838,-76696.412468,-187500.022352,-187500.022352,187500.0,187500.0,-187500.022352,187500.0,-63342.183929,-53325.786093,-187500.022352,-98020.468416,-170742.673664,-187500.022352,-187500.022352,-187500.022352
1680234180.848741,0,-89272.688541,-76609.508885,-187500.022352,-187500.022352,187500.0,187500.0,-187500.022352,187500.0,-63328.9964,-54263.866456,-187500.022352,-98400.336313,-170863.015457,-187500.022352,-187500.022352,-187500.022352
1680234180.848759,0,-89315.760352,-76651.261944,-187500.022352,-187500.022352,187500.0,187500.0,-187500.022352,187500.0,-63303.62717,-53467.183228,-187500.022352,-98009.985448,-170533.237819,-187500.022352,-187500.022352,-187500.022352
1680234180.848776,0,-89304.428018,-76682.420275,-187500.022352,-187500.022352,187500.0,187500.0,-187500.022352,187500.0,-63373.945758,-53762.069793,-187500.022352,-98261.509628,-170308.401621,-187500.022352,-187500.022352,-187500.022352
1680234180.848798,0,-89297.476625,-76608.92774,-187500.022352,-187500.022352,187500.0,187500.0,-187500.022352,187500.0,-63323.408463,-54028.435532,-187500.022352,-98252.792448,-170371.969983,-187500.022352,-187500.022352,-187500.022352
1680234181.071667,0,-82770.700189,-131729.335395,-187500.022352,0.0,187500.0,0.0,0.0,93749.988824,-58366.350337,-120333.298484,-142815.73359,-133905.523587,-178729.510752,-187500.022352,-187500.022352,-93750.011176
1680234181.071757,0,-88856.320245,-75922.080984,-187500.022352,-187500.022352,187500.0,187500.0,-187500.022352,187500.0,-62975.995299,-52849.828047,-187500.022352,-98011.952402,-186496.920764,-187500.022352,-187500.022352,-187500.022352
1680234181.071787,0,-88903.705943,-75980.642555,-187500.022352,-187500.022352,187500.0,187500.0,-187500.022352,187500.0,-62963.299508,-52442.445152,-187500.022352,-97794.022893,-186206.593955,-187500.022352,-187500.022352,-187500.022352
1680234181.071808,0,-88844.496172,-75931.222848,-187500.022352,-187500.022352,187500.0,187500.0,-187500.022352,187500.0,-63009.522916,-52770.725223,-187500.022352,-97996.775567,-186182.029388,-187500.022352,-187500.022352,-187500.022352
1680234181.071829,0,-88885.08694,-75942.532831,-187500.022352,-187500.022352,187500.0,187500.0,-187500.022352,187500.0,-62963.32186,-52651.992756,-187500.022352,-97886.939095,-186410.978307,-187500.022352,-187500.022352,-187500.022352
1680234181.071852,0,-88891.636001,-75988.108037,-187500.022352,-187500.022352,187500.0,187500.0,-187500.022352,187500.0,-63020.005884,-52513.300182,-187500.022352,-97851.019842,-185971.967694,-187500.022352,-187500.022352,-187500.022352
1680234181.071873,0,-88856.566114,-75921.499839,-187500.022352,-187500.022352,187500.0,187500.0,-187500.022352,187500.0,-62988.445221,-52871.084556,-187500.022352,-98019.574346,-186363.078518,-187500.022352,-187500.022352,-187500.022352
1680234181.071894,0,-88910.947908,-75991.997241,-187500.022352,-187500.022352,187500.0,187500.0,-187500.022352,187500.0,-62973.290738,-52431.045762,-187500.022352,-97777.951989,-186078.51846,-187500.022352,-187500.022352,-187500.022352
1680234181.071915,0,-88842.126887,-75930.731109,-187500.022352,-187500.022352,187500.0,187500.0,-187500.022352,187500.0,-63012.00396,-52827.208081,-187500.022352,-98009.806634,-186063.632198,-187500.022352,-187500.022352,-187500.022352
1680234181.071937,0,-88869.418367,-75879.523263,-187500.022352,-187500.022352,187500.0,187500.0,-187500.022352,187500.0,-62937.997334,-52665.895541,-187500.022352,-97869.974121,-186329.305032,-187500.022352,-187500.022352,-187500.022352
1680234181.071958,0,-88938.909941,-76043.450957,-187500.022352,-187500.022352,187500.0,187500.0,-187500.022352,187500.0,-63016.519012,-51708.23505,-187500.022352,-97522.069218,-185413.91169,-187500.022352,-187500.022352,-187500.022352
1680234181.071979,0,-88814.298965,-75910.592188,-187500.022352,-187500.022352,187500.0,187500.0,-187500.022352,187500.0,-63019.000056,-53348.316651,-187500.022352,-98304.983771,-186157.442469,-187500.022352,-187500.022352,-187500.022352
1680234181.07203,0,-88900.442588,-75913.363804,-187500.022352,-187500.022352,187500.0,187500.0,-187500.022352,187500.0,-62912.06931,-52396.2888,-187500.022352,-97684.879325,-185952.879304,-187500.022352,-187500.022352,-187500.022352
1680234181.072051,0,-88846.865457,-76004.558921,-187500.022352,-187500.022352,187500.0,187500.0,-187500.022352,187500.0,-63052.997059,-52401.67557,-187500.022352,-97880.792365,-185554.437107,-187500.022352,-187500.022352,-187500.022352
1680234181.329752,0,-88837.053041,-75852.745873,-187500.022352,-187500.022352,187500.0,187500.0,-187500.022352,187500.0,-62908.515383,-53343.846302,-187500.022352,-98148.566264,-186398.774254,-187500.022352,-187500.022352,-187500.022352
1680234181.329804,0,-88937.36767,-76048.882431,-187500.022352,-187500.022352,187500.0,187500.0,-187500.022352,187500.0,-63013.54623,-51832.153121,-187500.022352,-97503.450215,-185413.308193,-187500.022352,-187500.022352,-187500.022352
1680234181.329826,0,-88812.868454,-75925.724319,-187500.022352,-187500.022352,187500.0,187500.0,-187500.022352,187500.0,-63028.477195,-53369.617864,-187500.022352,-98291.080986,-186103.373599,-187500.022352,-187500.022352,-187500.022352
1680234181.329848,0,-88907.930423,-75931.200496,-187500.022352,-187500.022352,187500.0,187500.0,-187500.022352,187500.0,-62933.884613,-52476.017472,-187500.022352,-97719.569232,-185914.702525,-187500.022352,-187500.022352,-187500.022352
1680234181.329877,0,-88843.780916,-76020.94275,-187500.022352,-187500.022352,187500.0,187500.0,-187500.022352,187500.0,-63066.877492,-52429.302326,-187500.022352,-97889.911877,-185497.462511,-187500.022352,-187500.022352,-187500.022352
1680234181.3299,0,-88824.334899,-75853.908164,-187500.022352,-187500.022352,187500.0,187500.0,-187500.022352,187500.0,-62926.396778,-53383.185373,-187500.022352,-98171.700319,-186362.318559,-187500.022352,-187500.022352,-187500.022352
1680234181.32992,0,-88930.460981,-76043.026274,-187500.022352,-187500.022352,187500.0,187500.0,-187500.022352,187500.0,-63000.939846,-51900.884736,-187500.022352,-97533.11098,-185421.958318,-187500.022352,-187500.022352,-187500.022352
1680234181.329943,0,-88823.865512,-75929.032377,-187500.022352,-187500.022352,187500.0,187500.0,-187500.022352,187500.0,-63023.895088,-53329.697648,-187500.022352,-98276.26178,-186058.804221,-187500.022352,-187500.022352,-187500.022352
1680234181.330095,0,-88903.974164,-75939.761214,-187500.022352,-187500.022352,187500.0,187500.0,-187500.022352,187500.0,-62920.875898,-52548.750049,-187500.022352,-97758.438916,-185932.20394,-187500.022352,-187500.022352,-187500.022352
1680234181.330118,0,-88846.060794,-76015.153648,-187500.022352,-187500.022352,187500.0,187500.0,-187500.022352,187500.0,-63069.135018,-52491.954266,-187500.022352,-97902.428854,-185536.15338,-187500.022352,-187500.022352,-187500.022352
1680234181.330139,0,-88833.767335,-75880.931423,-187500.022352,-187500.022352,187500.0,187500.0,-187500.022352,187500.0,-62924.809805,-53228.779522,-187500.022352,-98113.071694,-186270.385834,-187500.022352,-187500.022352,-187500.022352
1680234181.33016,0,-88906.23169,-76037.974779,-187500.022352,-187500.022352,187500.0,187500.0,-187500.022352,187500.0,-62999.107003,-52058.039851,-187500.022352,-97615.186586,-185457.318778,-187500.022352,-187500.022352,-187500.022352
1680234181.330181,0,-88813.740172,-75937.503688,-187500.022352,-187500.022352,187500.0,187500.0,-187500.022352,187500.0,-63018.865945,-53261.8154,-187500.022352,-98237.593262,-186077.065596,-187500.022352,-187500.022352,-187500.022352
1680234181.330201,0,-88909.651507,-75964.459892,-187500.022352,-187500.022352,187500.0,187500.0,-187500.022352,187500.0,-62951.050753,-52544.145589,-187500.022352,-97774.129841,-185911.372115,-187500.022352,-187500.022352,-187500.022352
1680234181.330222,0,-88867.764338,-76031.805698,-187500.022352,-187500.022352,187500.0,187500.0,-187500.022352,187500.0,-63073.404202,-52532.187406,-187500.022352,-97925.674668,-185546.949273,-187500.022352,-187500.022352,-187500.022352
1680234181.330244,0,-88838.774125,-75888.128685,-187500.022352,-187500.022352,187500.0,187500.0,-187500.022352,187500.0,-62950.559014,-53206.830109,-187500.022352,-98132.204787,-186249.19638,-187500.022352,-187500.022352,-187500.022352
1680234181.330264,0,-88901.582527,-76042.46748,-187500.022352,-187500.022352,187500.0,187500.0,-187500.022352,187500.0,-63014.753224,-52069.193371,-187500.022352,-97649.496514,-185447.238141,-187500.022352,-187500.022352,-187500.022352
1680234181.330285,0,-88809.49334,-75952.76993,-187500.022352,-187500.022352,187500.0,187500.0,-187500.022352,187500.0,-63016.384902,-53199.141109,-187500.022352,-98227.110294,-186013.56429,-187500.022352,-187500.022352,-187500.022352
1680234181.330306,0,-88884.215222,-75971.835968,-187500.022352,-187500.022352,187500.0,187500.0,-187500.022352,187500.0,-62929.481319,-52508.896888,-187500.022352,-97786.356245,-185850.843591,-187500.022352,-187500.022352,-187500.022352
1680234181.330355,0,-88837.701242,-76052.190489,-187500.022352,-187500.022352,187500.0,187500.0,-187500.022352,187500.0,-63038.423722,-52483.03592,-187500.022352,-97927.216938,-185474.864897,-187500.022352,-187500.022352,-187500.022352
1680234181.330379,0,-88813.628413,-75935.357921,-187500.022352,-187500.022352,187500.0,187500.0,-187500.022352,187500.0,-62917.858412,-53186.870001,-187500.022352,-98140.676098,-186141.282158,-187500.022352,-187500.022352,-187500.022352
1680234181.3304,0,-88882.918821,-76089.942585,-187500.022352,-187500.022352,187500.0,187500.0,-187500.022352,187500.0,-62964.305337,-52102.810395,-187500.022352,-97660.113592,-185353.919608,-187500.022352,-187500.022352,-187500.022352
1680234181.33042,0,-88785.174642,-76001.876712,-187500.022352,-187500.022352,187500.0,187500.0,-187500.022352,187500.0,-62982.700823,-53231.43938,-187500.022352,-98242.68946,-185885.578201,-187500.022352,-187500.022352,-187500.022352
1680234181.330439,0,-88862.355216,-76031.023387,-187500.022352,-187500.022352,187500.0,187500.0,-187500.022352,187500.0,-62894.679653,-52566.787907,-187500.022352,-97806.02578,-185714.654412,-187500.022352,-187500.022352,-187500.022352
1680234181.330461,0,-88820.37864,-76103.152466,-187500.022352,-187500.022352,187500.0,187500.0,-187500.022352,187500.0,-63003.42089,-52556.863732,-187500.022352,-97946.618253,-185326.359907,-187500.022352,-187500.022352,-187500.022352
1680234181.330478,0,-88800.977326,-75983.883558,-187500.022352,-187500.022352,187500.0,187500.0,-187500.022352,187500.0,-62894.567894,-53281.015549,-187500.022352,-98164.234837,-186002.611935,-187500.022352,-187500.022352,-187500.022352
1680234181.330495,0,-88863.472803,-76114.037766,-187500.022352,-187500.022352,187500.0,187500.0,-187500.022352,187500.0,-62956.90691,-52173.196038,-187500.022352,-97685.32636,-185202.486539,-187500.022352,-187500.022352,-187500.022352
1680234181.330512,0,-88773.819956,-76028.49764,-187500.022352,-187500.022352,187500.0,187500.0,-187500.022352,187500.0,-62963.455971,-53308.597601,-187500.022352,-98275.077137,-185754.060537,-187500.022352,-187500.022352,-187500.022352
1680234181.330529,0,-88834.884922,-76019.91457,-187500.022352,-187500.022352,187500.0,187500.0,-187500.022352,187500.0,-62879.100487,-52657.491286,-187500.022352,-97839.888673,-185606.181396,-187500.022352,-187500.022352,-187500.022352
1680234181.330546,0,-88802.497244,-76093.809437,-187500.022352,-187500.022352,187500.0,187500.0,-187500.022352,187500.0,-62985.897122,-52615.715875,-187500.022352,-97969.528791,-185267.619523,-187500.022352,-187500.022352,-187500.022352
1680234181.330584,0,-88783.23004,-75978.206215,-187500.022352,-187500.022352,187500.0,187500.0,-187500.022352,187500.0,-62878.966377,-53342.304032,-187500.022352,-98192.778014,-185985.177575,-187500.022352,-187500.022352,-187500.022352
1680234181.330601,0,-88858.577771,-76118.552818,-187500.022352,-187500.022352,187500.0,187500.0,-187500.022352,187500.0,-62953.174168,-52210.568155,-187500.022352,-97695.362293,-185198.217356,-187500.022352,-187500.022352,-187500.022352
1680234181.47032,0,-88737.788944,-76004.245997,-187500.022352,-187500.022352,187500.0,187500.0,-187500.022352,187500.0,-62945.932203,-53374.69171,-187500.022352,-98307.822443,-185794.897174,-187500.022352,-187500.022352,-187500.022352
1680234181.470357,0,-88840.942245,-76036.030178,-187500.022352,-187500.022352,187500.0,187500.0,-187500.022352,187500.0,-62878.273473,-52692.337655,-187500.022352,-97844.448429,-185664.251228,-187500.022352,-187500.022352,-187500.022352
1680234181.47038,0,-88781.665418,-76084.667574,-187500.022352,-187500.022352,187500.0,187500.0,-187500.022352,187500.0,-62989.763974,-52637.262957,-187500.022352,-97983.632741,-185295.380389,-187500.022352,-187500.022352,-187500.022352
1680234181.470403,0,-88768.097909,-75959.810729,-187500.022352,-187500.022352,187500.0,187500.0,-187500.022352,187500.0,-62852.434856,-53385.889934,-187500.022352,-98213.319267,-186050.109392,-187500.022352,-187500.022352,-187500.022352
1680234181.470429,0,-88845.949035,-76099.35267,-187500.022352,-187500.022352,187500.0,187500.0,-187500.022352,187500.0,-62941.685372,-52213.764455,-187500.022352,-97700.212622,-185260.869296,-187500.022352,-187500.022352,-187500.022352
1680234181.470451,0,-88752.496392,-76003.217817,-187500.022352,-187500.022352,187500.0,187500.0,-187500.022352,187500.0,-62962.67366,-53352.831704,-187500.022352,-98301.027513,-185827.284852,-187500.022352,-187500.022352,-187500.022352
1680234181.470473,0,-88835.957806,-76028.899971,-187500.022352,-187500.022352,187500.0,187500.0,-187500.022352,187500.0,-62871.813818,-52728.79335,-187500.022352,-97879.18304,-185759.939046,-187500.022352,-187500.022352,-187500.022352
1680234181.470494,0,-88791.924869,-76090.25551,-187500.022352,-187500.022352,187500.0,187500.0,-187500.022352,187500.0,-62990.456878,-52657.468934,-187500.022352,-98004.822195,-185401.327658,-187500.022352,-187500.022352,-187500.022352
1680234181.470576,0,-88767.784985,-75958.357866,-187500.022352,-187500.022352,187500.0,187500.0,-187500.022352,187500.0,-62867.410525,-53431.509844,-187500.022352,-98253.731221,-186181.224725,-187500.022352,-187500.022352,-187500.022352
1680234181.470597,0,-88835.37666,-76082.141826,-187500.022352,-187500.022352,187500.0,187500.0,-187500.022352,187500.0,-62914.930333,-52262.155981,-187500.022352,-97736.489503,-185435.347013,-187500.022352,-187500.022352,-187500.022352
1680234181.470618,0,-88736.760764,-75982.654212,-187500.022352,-187500.022352,187500.0,187500.0,-187500.022352,187500.0,-62931.515328,-53401.98319,-187500.022352,-98328.251937,-186030.506913,-187500.022352,-187500.022352,-187500.022352
1680234181.47064,0,-88837.053041,-76010.81741,-187500.022352,-187500.022352,187500.0,187500.0,-187500.022352,187500.0,-62845.706981,-52747.948795,-187500.022352,-97883.496926,-185966.335054,-187500.022352,-187500.022352,-187500.022352
1680234181.470661,0,-88804.844177,-76098.07862,-187500.022352,-187500.022352,187500.0,187500.0,-187500.022352,187500.0,-62982.27614,-52649.243492,-187500.022352,-98002.251745,-185570.530363,-187500.022352,-187500.022352,-187500.022352
1680234181.470683,0,-88785.845195,-75963.230546,-187500.022352,-187500.022352,187500.0,187500.0,-187500.022352,187500.0,-62878.11701,-53457.884903,-187500.022352,-98262.671919,-186344.705384,-187500.022352,-187500.022352,-187500.022352
1680234181.470704,0,-88844.809096,-76091.864835,-187500.022352,-187500.022352,187500.0,187500.0,-187500.022352,187500.0,-62925.972095,-52280.149136,-187500.022352,-97741.608052,-185586.578916,-187500.022352,-187500.022352,-187500.022352
1680234181.470726,0,-88724.646118,-75967.63384,-187500.022352,-187500.022352,187500.0,187500.0,-187500.022352,187500.0,-62917.970171,-53434.572033,-187500.022352,-98341.573577,-186190.232478,-187500.022352,-187500.022352,-187500.022352
1680234181.470747,0,-88809.381581,-75997.36166,-187500.022352,-187500.022352,187500.0,187500.0,-187500.022352,187500.0,-62833.212356,-52769.78645,-187500.022352,-97879.138336,-186122.372582,-187500.022352,-187500.022352,-187500.022352
1680234181.470768,0,-88777.887974,-76075.659821,-187500.022352,-187500.022352,187500.0,187500.0,-187500.022352,187500.0,-62959.767933,-52639.900463,-187500.022352,-97983.878611,-185708.015944,-187500.022352,-187500.022352,-187500.022352
1680234181.586836,0,-88746.170848,-75934.933237,-187500.022352,-187500.022352,187500.0,187500.0,-187500.022352,187500.0,-62832.362989,-53474.402842,-187500.022352,-98256.212265,-186493.992686,-187500.022352,-187500.022352,-187500.022352
1680234181.586871,0,-88831.576864,-76081.851254,-187500.022352,-187500.022352,187500.0,187500.0,-187500.022352,187500.0,-62891.908037,-52265.866371,-187500.022352,-97714.182462,-185718.364801,-187500.022352,-187500.022352,-187500.022352
1680234181.5869,0,-88744.941502,-75999.999166,-187500.022352,-187500.022352,187500.0,187500.0,-187500.022352,187500.0,-62939.114921,-53408.286382,-187500.022352,-98324.988583,-186263.590904,-187500.022352,-187500.022352,-187500.022352
1680234181.586922,0,-88809.940375,-75995.528817,-187500.022352,-187500.022352,187500.0,187500.0,-187500.022352,187500.0,-62843.427103,-52783.465717,-187500.022352,-97890.805947,-186183.057568,-187500.022352,-187500.022352,-187500.022352
1680234181.586946,0,-88779.542003,-76081.471274,-187500.022352,-187500.022352,187500.0,187500.0,-187500.022352,187500.0,-62955.588157,-52652.41744,-187500.022352,-97989.041864,-185773.95359,-187500.022352,-187500.022352,-187500.022352
1680234181.586968,0,-88753.36811,-75950.668866,-187500.022352,-187500.022352,187500.0,187500.0,-187500.022352,187500.0,-62851.361972,-53490.764319,-187500.022352,-98263.990672,-186541.646605,-187500.022352,-187500.022352,-187500.022352
1680234181.58699,0,-88836.203675,-76085.382829,-187500.022352,-187500.022352,187500.0,187500.0,-187500.022352,187500.0,-62894.925522,-52252.1424,-187500.022352,-97718.161073,-185742.996424,-187500.022352,-187500.022352,-187500.022352
1680234181.587012,0,-88752.831668,-76010.884465,-187500.022352,-187500.022352,187500.0,187500.0,-187500.022352,187500.0,-62933.638744,-53420.915117,-187500.022352,-98334.108094,-186285.562669,-187500.022352,-187500.022352,-187500.022352
1680234181.587033,0,-88808.107532,-75981.782494,-187500.022352,-187500.022352,187500.0,187500.0,-187500.022352,187500.0,-62841.437798,-52805.124558,-187500.022352,-97904.328752,-186222.016659,-187500.022352,-187500.022352,-187500.022352
1680234181.587056,0,-88779.407892,-76081.739495,-187500.022352,-187500.022352,187500.0,187500.0,-187500.022352,187500.0,-62949.86611,-52625.349477,-187500.022352,-97968.388852,-185773.797127,-187500.022352,-187500.022352,-187500.022352
1680234181.587078,0,-88761.101813,-75944.432729,-187500.022352,-187500.022352,187500.0,187500.0,-187500.022352,187500.0,-62845.617574,-53488.395034,-187500.022352,-98258.536846,-186553.180105,-187500.022352,-187500.022352,-187500.022352
1680234181.587158,0,-88853.816849,-76093.876492,-187500.022352,-187500.022352,187500.0,187500.0,-187500.022352,187500.0,-62895.819592,-52219.799426,-187500.022352,-97704.101825,-185719.817665,-187500.022352,-187500.022352,-187500.022352
1680234181.58718,0,-88741.052299,-75995.037078,-187500.022352,-187500.022352,187500.0,187500.0,-187500.022352,187500.0,-62945.731037,-53405.984152,-187500.022352,-98346.133333,-186240.412145,-187500.022352,-187500.022352,-187500.022352
1680234181.587202,0,-88801.178491,-75980.039058,-187500.022352,-187500.022352,187500.0,187500.0,-187500.022352,187500.0,-62831.155995,-52791.534697,-187500.022352,-97913.224746,-186207.979764,-187500.022352,-187500.022352,-187500.022352
1680234182.042696,0,-88815.394201,-76101.677251,-187500.022352,-187500.022352,187500.0,187500.0,-187500.022352,187500.0,-62967.92632,-52563.949235,-187500.022352,-97957.749421,-185692.347371,-187500.022352,-187500.022352,-187500.022352
1680234182.042766,0,-88774.468157,-75958.424921,-187500.022352,-187500.022352,187500.0,187500.0,-187500.022352,187500.0,-62874.585435,-53466.199752,-187500.022352,-98275.501821,-186430.7596,-187500.022352,-187500.022352,-187500.022352
1680234182.042812,0,-88870.290085,-76105.722917,-187500.022352,-187500.022352,187500.0,187500.0,-187500.022352,187500.0,-62917.679598,-52178.761623,-187500.022352,-97702.648962,-185589.171718,-187500.022352,-187500.022352,-187500.022352
1680234182.042848,0,-88763.985188,-76029.302303,-187500.022352,-187500.022352,187500.0,187500.0,-187500.022352,187500.0,-62963.746543,-53375.026986,-187500.022352,-98344.903987,-186069.890686,-187500.022352,-187500.022352,-187500.022352
1680234182.042877,0,-88849.59237,-76025.010768,-187500.022352,-187500.022352,187500.0,187500.0,-187500.022352,187500.0,-62850.378495,-52779.688272,-187500.022352,-97911.794235,-186033.412639,-187500.022352,-187500.022352,-187500.022352
1680234182.0429,0,-88867.987855,-76161.75874,-187500.022352,-187500.022352,187500.0,187500.0,-187500.022352,187500.0,-62991.663872,-52518.552842,-187500.022352,-97950.17218,-185484.409092,-187500.022352,-187500.022352,-187500.022352
1680234182.042926,0,-88831.219236,-76020.674529,-187500.022352,-187500.022352,187500.0,187500.0,-187500.022352,187500.0,-62909.63297,-53456.454391,-187500.022352,-98291.013931,-186237.707584,-187500.022352,-187500.022352,-187500.022352
1680234182.043012,0,-88925.789467,-76170.028886,-187500.022352,-187500.022352,187500.0,187500.0,-187500.022352,187500.0,-62943.96525,-52145.189303,-187500.022352,-97695.854032,-185383.088634,-187500.022352,-187500.022352,-187500.022352
1680234182.043033,0,-88836.158971,-76091.216635,-187500.022352,-187500.022352,187500.0,187500.0,-187500.022352,187500.0,-62988.758145,-53312.576212,-187500.022352,-98326.910833,-185827.798942,-187500.022352,-187500.022352,-187500.022352
1680234182.043053,0,-88915.261795,-76083.192358,-187500.022352,-187500.022352,187500.0,187500.0,-187500.022352,187500.0,-62889.270531,-52712.186004,-187500.022352,-97907.189775,-185738.257854,-187500.022352,-187500.022352,-187500.022352
1680234182.043074,0,-88871.944114,-76165.513833,-187500.022352,-187500.022352,187500.0,187500.0,-187500.022352,187500.0,-63028.007809,-52468.663748,-187500.022352,-97966.399546,-185173.429271,-187500.022352,-187500.022352,-187500.022352
1680234182.043095,0,-88840.741079,-76025.100175,-187500.022352,-187500.022352,187500.0,187500.0,-187500.022352,187500.0,-62919.043054,-53424.312583,-187500.022352,-98293.450271,-185945.1456,-187500.022352,-187500.022352,-187500.022352
1680234182.043114,0,-88947.045976,-76181.942365,-187500.022352,-187500.022352,187500.0,187500.0,-187500.022352,187500.0,-62960.103209,-52116.400256,-187500.022352,-97699.564421,-185061.55879,-187500.022352,-187500.022352,-187500.022352
1680234182.043134,0,-88828.827599,-76091.440152,-187500.022352,-187500.022352,187500.0,187500.0,-187500.022352,187500.0,-63018.508317,-53305.311895,-187500.022352,-98346.915644,-185500.01061,-187500.022352,-187500.022352,-187500.022352
1680234182.043153,0,-88888.864385,-76068.306097,-187500.022352,-187500.022352,187500.0,187500.0,-187500.022352,187500.0,-62895.014929,-52759.571702,-187500.022352,-97936.85054,-185486.756025,-187500.022352,-187500.022352,-187500.022352
1680234182.043174,0,-88864.791556,-76164.865633,-187500.022352,-187500.022352,187500.0,187500.0,-187500.022352,187500.0,-63015.647294,-52488.579153,-187500.022352,-97962.152715,-184929.012946,-187500.022352,-187500.022352,-187500.022352
1680234182.043193,0,-88827.352384,-76017.925265,-187500.022352,-187500.022352,187500.0,187500.0,-187500.022352,187500.0,-62909.901191,-53450.709993,-187500.022352,-98305.542565,-185736.916749,-187500.022352,-187500.022352,-187500.022352
1680234182.043213,0,-88923.01785,-76162.719865,-187500.022352,-187500.022352,187500.0,187500.0,-187500.022352,187500.0,-62956.370468,-52172.771355,-187500.022352,-97720.68682,-184903.263736,-187500.022352,-187500.022352,-187500.022352
1680234182.043259,0,-88809.269823,-76070.65303,-187500.022352,-187500.022352,187500.0,187500.0,-187500.022352,187500.0,-63002.973855,-53325.428465,-187500.022352,-98346.155685,-185357.182963,-187500.022352,-187500.022352,-187500.022352
1680234182.043279,0,-88899.526167,-76070.78714,-187500.022352,-187500.022352,187500.0,187500.0,-187500.022352,187500.0,-62879.502819,-52795.379197,-187500.022352,-97948.115819,-185365.60957,-187500.022352,-187500.022352,-187500.022352
1680234182.043302,0,-88856.76728,-76162.384589,-187500.022352,-187500.022352,187500.0,187500.0,-187500.022352,187500.0,-63019.849422,-52517.569365,-187500.022352,-97980.235276,-184793.695485,-187500.022352,-187500.022352,-187500.022352
1680234182.043323,0,-88806.744076,-76007.665814,-187500.022352,-187500.022352,187500.0,187500.0,-187500.022352,187500.0,-62913.09749,-53499.280333,-187500.022352,-98331.090609,-185637.362079,-187500.022352,-187500.022352,-187500.022352
1680234182.043343,0,-88898.341524,-76148.101824,-187500.022352,-187500.022352,187500.0,187500.0,-187500.022352,187500.0,-62951.989526,-52239.558368,-187500.022352,-97744.223207,-184850.379509,-187500.022352,-187500.022352,-187500.022352
1680234182.043363,0,-88788.72857,-76050.469405,-187500.022352,-187500.022352,187500.0,187500.0,-187500.022352,187500.0,-62998.436451,-53352.049393,-187500.022352,-98350.983662,-185321.733096,-187500.022352,-187500.022352,-187500.022352
1680234182.043392,0,-88853.258056,-76030.263428,-187500.022352,-187500.022352,187500.0,187500.0,-187500.022352,187500.0,-62873.065516,-52847.905797,-187500.022352,-97962.08566,-185380.741701,-187500.022352,-187500.022352,-187500.022352
1680234182.043422,0,-88834.21437,-76127.605275,-187500.022352,-187500.022352,187500.0,187500.0,-187500.022352,187500.0,-63003.063262,-52545.82197,-187500.022352,-97969.729956,-184849.105459,-187500.022352,-187500.022352,-187500.022352
1680234182.043442,0,-88793.802416,-75991.304337,-187500.022352,-187500.022352,187500.0,187500.0,-187500.022352,187500.0,-62910.52704,-53477.7109,-187500.022352,-98310.795225,-185671.649655,-187500.022352,-187500.022352,-187500.022352
1680234182.043462,0,-88888.082074,-76123.581961,-187500.022352,-187500.022352,187500.0,187500.0,-187500.022352,187500.0,-62930.330685,-52234.685687,-187500.022352,-97742.680936,-184882.566021,-187500.022352,-187500.022352,-187500.022352
1680234182.043595,0,-88783.878241,-76049.64239,-187500.022352,-187500.022352,187500.0,187500.0,-187500.022352,187500.0,-62989.383994,-53321.181634,-187500.022352,-98340.813618,-185329.757372,-187500.022352,-187500.022352,-187500.022352
1680234182.043616,0,-88864.210411,-76049.418873,-187500.022352,-187500.022352,187500.0,187500.0,-187500.022352,187500.0,-62880.821571,-52828.996221,-187500.022352,-97965.974863,-185374.863192,-187500.022352,-187500.022352,-187500.022352
1680234182.043636,0,-88862.332864,-76159.367104,-187500.022352,-187500.022352,187500.0,187500.0,-187500.022352,187500.0,-63027.292553,-52508.494557,-187500.022352,-97964.767869,-184782.653723,-187500.022352,-187500.022352,-187500.022352
1680234182.043656,0,-88815.617718,-76009.766878,-187500.022352,-187500.022352,187500.0,187500.0,-187500.022352,187500.0,-62917.254915,-53460.075374,-187500.022352,-98317.38899,-185591.742169,-187500.022352,-187500.022352,-187500.022352
1680234182.043676,0,-88900.33083,-76142.938571,-187500.022352,-187500.022352,187500.0,187500.0,-187500.022352,187500.0,-62963.746543,-52212.177481,-187500.022352,-97742.47977,-184769.332083,-187500.022352,-187500.022352,-187500.022352
1680234182.043696,0,-88800.440884,-76057.823128,-187500.022352,-187500.022352,187500.0,187500.0,-187500.022352,187500.0,-63013.92621,-53275.449964,-187500.022352,-98342.691164,-185194.417559,-187500.022352,-187500.022352,-187500.022352
1680234182.043715,0,-88876.168594,-76049.664742,-187500.022352,-187500.022352,187500.0,187500.0,-187500.022352,187500.0,-62913.34336,-52813.729979,-187500.022352,-97976.815459,-185222.290185,-187500.022352,-187500.022352,-187500.022352
1680234182.043736,0,-88855.828506,-76150.180537,-187500.022352,-187500.022352,187500.0,187500.0,-187500.022352,187500.0,-63044.928079,-52482.275961,-187500.022352,-97972.859201,-184591.769825,-187500.022352,-187500.022352,-187500.022352
1680234182.043758,0,-88826.435962,-76019.802811,-187500.022352,-187500.022352,187500.0,187500.0,-187500.022352,187500.0,-62941.417151,-53439.064734,-187500.022352,-98333.28108,-185407.541443,-187500.022352,-187500.022352,-187500.022352
1680234182.043778,0,-88915.150036,-76152.885098,-187500.022352,-187500.022352,187500.0,187500.0,-187500.022352,187500.0,-62976.665852,-52210.165824,-187500.022352,-97761.143477,-184575.564811,-187500.022352,-187500.022352,-187500.022352
1680234182.043798,0,-88822.256186,-76084.913443,-187500.022352,-187500.022352,187500.0,187500.0,-187500.022352,187500.0,-63030.868832,-53260.518999,-187500.022352,-98344.255786,-184978.231487,-187500.022352,-187500.022352,-187500.022352
1680234182.043843,0,-88885.936306,-76066.786178,-187500.022352,-187500.022352,187500.0,187500.0,-187500.022352,187500.0,-62931.872956,-52815.719285,-187500.022352,-97987.633704,-185005.791188,-187500.022352,-187500.022352,-187500.022352
1680234182.043863,0,-88871.810004,-76161.177595,-187500.022352,-187500.022352,187500.0,187500.0,-187500.022352,187500.0,-63039.183681,-52480.621932,-187500.022352,-97978.290674,-184379.562364,-187500.022352,-187500.022352,-187500.022352
1680234182.043883,0,-88825.474837,-76029.995207,-187500.022352,-187500.022352,187500.0,187500.0,-187500.022352,187500.0,-62949.039096,-53449.458295,-187500.022352,-98338.891368,-185180.604181,-187500.022352,-187500.022352,-187500.022352
1680234182.043903,0,-88900.934327,-76141.731577,-187500.022352,-187500.022352,187500.0,187500.0,-187500.022352,187500.0,-62974.698898,-52240.720658,-187500.022352,-97769.704195,-184383.608029,-187500.022352,-187500.022352,-187500.022352
1680234182.043922,0,-88780.704293,-76056.414969,-187500.022352,-187500.022352,187500.0,187500.0,-187500.022352,187500.0,-63032.925192,-53262.731822,-187500.022352,-98346.110981,-184790.990924,-187500.022352,-187500.022352,-187500.022352
1680234182.043941,0,-88858.041329,-76046.155518,-187500.022352,-187500.022352,187500.0,187500.0,-187500.022352,187500.0,-62902.413357,-52836.707573,-187500.022352,-97995.523869,-184891.797291,-187500.022352,-187500.022352,-187500.022352
1680234182.043962,0,-88844.674986,-76145.173746,-187500.022352,-187500.022352,187500.0,187500.0,-187500.022352,187500.0,-63030.108873,-52482.588885,-187500.022352,-97971.428689,-184272.564563,-187500.022352,-187500.022352,-187500.022352
1680234182.043982,0,-88808.241643,-76010.526837,-187500.022352,-187500.022352,187500.0,187500.0,-187500.022352,187500.0,-62936.231546,-53453.36985,-187500.022352,-98334.242205,-185103.691829,-187500.022352,-187500.022352,-187500.022352
1680234182.044001,0,-88899.257946,-76145.285504,-187500.022352,-187500.022352,187500.0,187500.0,-187500.022352,187500.0,-62966.249939,-52231.109408,-187500.022352,-97763.713928,-184287.629639,-187500.022352,-187500.022352,-187500.022352
1680234182.044021,0,-88794.405913,-76067.121454,-187500.022352,-187500.022352,187500.0,187500.0,-187500.022352,187500.0,-63021.503451,-53255.959243,-187500.022352,-98348.234397,-184684.618972,-187500.022352,-187500.022352,-187500.022352
1680234182.044064,0,-88881.398902,-76057.33139,-187500.022352,-187500.022352,187500.0,187500.0,-187500.022352,187500.0,-62916.226735,-52843.927186,-187500.022352,-97998.206079,-184770.561429,-187500.022352,-187500.022352,-187500.022352
1680234182.044085,0,-88867.943152,-76167.749008,-187500.022352,-187500.022352,187500.0,187500.0,-187500.022352,187500.0,-63067.592748,-52464.908655,-187500.022352,-97964.611407,-184095.605802,-187500.022352,-187500.022352,-187500.022352
1680234182.044104,0,-88806.319392,-76009.588064,-187500.022352,-187500.022352,187500.0,187500.0,-187500.022352,187500.0,-62960.125561,-53475.542781,-187500.022352,-98352.011842,-184945.843809,-187500.022352,-187500.022352,-187500.022352
1680234182.044125,0,-88896.709847,-76134.109632,-187500.022352,-187500.022352,187500.0,187500.0,-187500.022352,187500.0,-62983.617244,-52239.826589,-187500.022352,-97763.289245,-184137.470619,-187500.022352,-187500.022352,-187500.022352
1680234182.044145,0,-88800.954974,-76070.340105,-187500.022352,-187500.022352,187500.0,187500.0,-187500.022352,187500.0,-63029.43832,-53260.876627,-187500.022352,-98343.585234,-184509.068371,-187500.022352,-187500.022352,-187500.022352
1680234182.044166,0,-88876.258001,-76054.716236,-187500.022352,-187500.022352,187500.0,187500.0,-187500.022352,187500.0,-62935.069255,-52858.768744,-187500.022352,-98008.487881,-184593.960296,-187500.022352,-187500.022352,-187500.022352
1680234182.044185,0,-88851.067585,-76146.425443,-187500.022352,-187500.022352,187500.0,187500.0,-187500.022352,187500.0,-63066.162236,-52466.920312,-187500.022352,-97982.224582,-183944.195085,-187500.022352,-187500.022352,-187500.022352
1680234182.044205,0,-88797.95984,-76007.86698,-187500.022352,-187500.022352,187500.0,187500.0,-187500.022352,187500.0,-62965.959366,-53481.577752,-187500.022352,-98371.659025,-184813.968517,-187500.022352,-187500.022352,-187500.022352
1680234182.044225,0,-88898.833263,-76142.625647,-187500.022352,-187500.022352,187500.0,187500.0,-187500.022352,187500.0,-62990.99332,-52241.480618,-187500.022352,-97779.941294,-184005.148292,-187500.022352,-187500.022352,-187500.022352
1680234182.511636,0,-88799.680924,-76070.898899,-187500.022352,-187500.022352,187500.0,187500.0,-187500.022352,187500.0,-63038.870756,-53256.674499,-187500.022352,-98357.689185,-184395.320343,-187500.022352,-187500.022352,-187500.022352
1680234182.511681,0,-88866.333826,-76055.207974,-187500.022352,-187500.022352,187500.0,187500.0,-187500.022352,187500.0,-62939.181976,-52869.922265,-187500.022352,-98015.551032,-184475.473699,-187500.022352,-187500.022352,-187500.022352
1680234182.511771,0,-88866.333826,-76169.44774,-187500.022352,-187500.022352,187500.0,187500.0,-187500.022352,187500.0,-63054.785199,-52450.447077,-187500.022352,-97968.590017,-183810.956336,-187500.022352,-187500.022352,-187500.022352
1680234182.511792,0,-88799.971497,-76015.69009,-187500.022352,-187500.022352,187500.0,187500.0,-187500.022352,187500.0,-62958.404476,-53482.807098,-187500.022352,-98379.169211,-184665.798803,-187500.022352,-187500.022352,-187500.022352
1680234182.511821,0,-88902.588356,-76142.424481,-187500.022352,-187500.022352,187500.0,187500.0,-187500.022352,187500.0,-62974.34127,-52252.723545,-187500.022352,-97776.365015,-183856.598599,-187500.022352,-187500.022352,-187500.022352
1680234182.511841,0,-88813.091971,-76094.345879,-187500.022352,-187500.022352,187500.0,187500.0,-187500.022352,187500.0,-63042.469387,-53242.279976,-187500.022352,-98347.988528,-184179.961286,-187500.022352,-187500.022352,-187500.022352
1680234182.511861,0,-88869.597181,-76057.085521,-187500.022352,-187500.022352,187500.0,187500.0,-187500.022352,187500.0,-62913.611581,-52899.940658,-187500.022352,-98050.307995,-184320.218482,-187500.022352,-187500.022352,-187500.022352
1680234182.511881,0,-88855.672044,-76166.810234,-187500.022352,-187500.022352,187500.0,187500.0,-187500.022352,187500.0,-63032.321695,-52452.548141,-187500.022352,-97979.743538,-183629.236654,-187500.022352,-187500.022352,-187500.022352
1680234182.5119,0,-88819.730439,-76035.560791,-187500.022352,-187500.022352,187500.0,187500.0,-187500.022352,187500.0,-62961.019631,-53467.58556,-187500.022352,-98374.117717,-184471.673902,-187500.022352,-187500.022352,-187500.022352
1680234182.51192,0,-88908.377458,-76147.811252,-187500.022352,-187500.022352,187500.0,187500.0,-187500.022352,187500.0,-62974.184808,-52233.210472,-187500.022352,-97777.281437,-183638.847904,-187500.022352,-187500.022352,-187500.022352
1680234182.511945,0,-88799.256241,-76073.648164,-187500.022352,-187500.022352,187500.0,187500.0,-187500.022352,187500.0,-63031.22646,-53223.3704,-187500.022352,-98353.934092,-183989.74794,-187500.022352,-187500.022352,-187500.022352
1680234182.511966,0,-88861.058815,-76053.285724,-187500.022352,-187500.022352,187500.0,187500.0,-187500.022352,187500.0,-62897.920656,-52881.299303,-187500.022352,-98036.047582,-184136.33068,-187500.022352,-187500.022352,-187500.022352
1680234182.512024,0,-88868.926629,-76167.52549,-187500.022352,-187500.022352,187500.0,187500.0,-187500.022352,187500.0,-63036.546175,-52408.559908,-187500.022352,-97948.540503,-183411.262442,-187500.022352,-187500.022352,-187500.022352
1680234182.512044,0,-88799.770331,-76005.497695,-187500.022352,-187500.022352,187500.0,187500.0,-187500.022352,187500.0,-62950.402552,-53453.146333,-187500.022352,-98357.62213,-184247.016519,-187500.022352,-187500.022352,-187500.022352
1680234182.512063,0,-88906.589318,-76138.267057,-187500.022352,-187500.022352,187500.0,187500.0,-187500.022352,187500.0,-62959.164436,-52195.190155,-187500.022352,-97750.571102,-183431.468419,-187500.022352,-187500.022352,-187500.022352
1680234182.512083,0,-88800.977326,-76074.251661,-187500.022352,-187500.022352,187500.0,187500.0,-187500.022352,187500.0,-63041.664725,-53170.664986,-187500.022352,-98324.250975,-183720.275309,-187500.022352,-187500.022352,-187500.022352
1680234182.512103,0,-88877.934382,-76055.185623,-187500.022352,-187500.022352,187500.0,187500.0,-187500.022352,187500.0,-62916.472604,-52842.027288,-187500.022352,-98016.914489,-183840.505343,-187500.022352,-187500.022352,-187500.022352
1680234182.512123,0,-88864.880963,-76159.344752,-187500.022352,-187500.022352,187500.0,187500.0,-187500.022352,187500.0,-63043.028181,-52357.173247,-187500.022352,-97933.609537,-183063.603409,-187500.022352,-187500.022352,-187500.022352
1680234182.512144,0,-88820.222178,-76022.842648,-187500.022352,-187500.022352,187500.0,187500.0,-187500.022352,187500.0,-62952.771837,-53422.703257,-187500.022352,-98363.590045,-183900.005686,-187500.022352,-187500.022352,-187500.022352
1680234182.512164,0,-88909.338583,-76147.990066,-187500.022352,-187500.022352,187500.0,187500.0,-187500.022352,187500.0,-62974.475381,-52178.85103,-187500.022352,-97761.992843,-183046.750193,-187500.022352,-187500.022352,-187500.022352
1680234182.512183,0,-88824.692526,-76104.001832,-187500.022352,-187500.022352,187500.0,187500.0,-187500.022352,187500.0,-63047.990268,-53147.240358,-187500.022352,-98330.665926,-183319.396772,-187500.022352,-187500.022352,-187500.022352
1680234182.512204,0,-88890.652524,-76062.20407,-187500.022352,-187500.022352,187500.0,187500.0,-187500.022352,187500.0,-62929.056636,-52845.290642,-187500.022352,-98031.174902,-183438.620977,-187500.022352,-187500.022352,-187500.022352
1680234182.512223,0,-88883.812891,-76168.598374,-187500.022352,-187500.022352,187500.0,187500.0,-187500.022352,187500.0,-63061.133094,-52339.40361,-187500.022352,-97938.236348,-182648.397404,-187500.022352,-187500.022352,-187500.022352
1680234182.512266,0,-88827.397088,-76021.45684,-187500.022352,-187500.022352,187500.0,187500.0,-187500.022352,187500.0,-62958.292718,-53446.530217,-187500.022352,-98392.200278,-183540.053194,-187500.022352,-187500.022352,-187500.022352
1680234182.512285,0,-88939.826362,-76162.78692,-187500.022352,-187500.022352,187500.0,187500.0,-187500.022352,187500.0,-62986.433564,-52177.152297,-187500.022352,-97755.622596,-182669.028064,-187500.022352,-187500.022352,-187500.022352
1680234182.512305,0,-88826.771239,-76098.212731,-187500.022352,-187500.022352,187500.0,187500.0,-187500.022352,187500.0,-63055.992193,-53141.339498,-187500.022352,-98338.01965,-182936.846666,-187500.022352,-187500.022352,-187500.022352
1680234182.512327,0,-88886.785673,-76060.639448,-187500.022352,-187500.022352,187500.0,187500.0,-187500.022352,187500.0,-62926.575592,-52875.62196,-187500.022352,-98055.046565,-183123.796657,-187500.022352,-187500.022352,-187500.022352
1680234182.512347,0,-88894.921708,-76192.24652,-187500.022352,-187500.022352,187500.0,187500.0,-187500.022352,187500.0,-63053.041762,-52355.429811,-187500.022352,-97940.739744,-182344.659548,-187500.022352,-187500.022352,-187500.022352
1680234182.512366,0,-88825.720707,-76029.436413,-187500.022352,-187500.022352,187500.0,187500.0,-187500.022352,187500.0,-62963.947709,-53480.14724,-187500.022352,-98404.761959,-183257.795365,-187500.022352,-187500.022352,-187500.022352
1680234182.512386,0,-88927.264682,-76167.480787,-187500.022352,-187500.022352,187500.0,187500.0,-187500.022352,187500.0,-62982.79023,-52209.741141,-187500.022352,-97771.358224,-182420.543721,-187500.022352,-187500.022352,-187500.022352
1680234182.512405,0,-88817.852893,-76095.776391,-187500.022352,-187500.022352,187500.0,187500.0,-187500.022352,187500.0,-63059.54612,-53171.402594,-187500.022352,-98353.889388,-182706.444884,-187500.022352,-187500.022352,-187500.022352
1680234182.512426,0,-88895.547556,-76069.110759,-187500.022352,-187500.022352,187500.0,187500.0,-187500.022352,187500.0,-62927.983752,-52903.472233,-187500.022352,-98055.091268,-182912.796189,-187500.022352,-187500.022352,-187500.022352
1680234182.512446,0,-88873.195812,-76163.233955,-187500.022352,-187500.022352,187500.0,187500.0,-187500.022352,187500.0,-63067.346879,-52351.160628,-187500.022352,-97943.623119,-182114.324822,-187500.022352,-187500.022352,-187500.022352
1680234182.512488,0,-88825.541893,-76022.909704,-187500.022352,-187500.022352,187500.0,187500.0,-187500.022352,187500.0,-62957.309241,-53474.224028,-187500.022352,-98395.195412,-183053.433365,-187500.022352,-187500.022352,-187500.022352
1680234182.512507,0,-88931.802086,-76157.556612,-187500.022352,-187500.022352,187500.0,187500.0,-187500.022352,187500.0,-62983.729003,-52202.208603,-187500.022352,-97756.18139,-182217.723992,-187500.022352,-187500.022352,-187500.022352
1680234182.512527,0,-88831.599215,-76107.958091,-187500.022352,-187500.022352,187500.0,187500.0,-187500.022352,187500.0,-63062.854178,-53138.992565,-187500.022352,-98330.97885,-182504.049838,-187500.022352,-187500.022352,-187500.022352
1680234182.512547,0,-88911.417295,-76088.422667,-187500.022352,-187500.022352,187500.0,187500.0,-187500.022352,187500.0,-62945.842796,-52896.610248,-187500.022352,-98060.612149,-182730.204788,-187500.022352,-187500.022352,-187500.022352
1680234182.512566,0,-88889.087902,-76184.378706,-187500.022352,-187500.022352,187500.0,187500.0,-187500.022352,187500.0,-63080.512056,-52315.666058,-187500.022352,-97936.403505,-181901.804435,-187500.022352,-187500.022352,-187500.022352
1680234182.512586,0,-88846.418422,-76047.876602,-187500.022352,-187500.022352,187500.0,187500.0,-187500.022352,187500.0,-62971.636709,-53463.428135,-187500.022352,-98398.794043,-182837.873142,-187500.022352,-187500.022352,-187500.022352
1680234182.512605,0,-88928.404621,-76152.01338,-187500.022352,-187500.022352,187500.0,187500.0,-187500.022352,187500.0,-62993.496715,-52198.341751,-187500.022352,-97769.63714,-182003.862501,-187500.022352,-187500.022352,-187500.022352
1680234182.512632,0,-88828.06764,-76096.223425,-187500.022352,-187500.022352,187500.0,187500.0,-187500.022352,187500.0,-63060.261376,-53135.438637,-187500.022352,-98339.092533,-182302.14653,-187500.022352,-187500.022352,-187500.022352
1680234182.512659,0,-88902.878929,-76066.719123,-187500.022352,-187500.022352,187500.0,187500.0,-187500.022352,187500.0,-62932.834081,-52900.186527,-187500.022352,-98066.267141,-182557.62697,-187500.022352,-187500.022352,-187500.022352
1680234182.51268,0,-88891.859519,-76182.3894,-187500.022352,-187500.022352,187500.0,187500.0,-187500.022352,187500.0,-63067.302175,-52295.460081,-187500.022352,-97928.245119,-181725.873855,-187500.022352,-187500.022352,-187500.022352
1680234182.5127,0,-88821.965614,-76027.156535,-187500.022352,-187500.022352,187500.0,187500.0,-187500.022352,187500.0,-62949.754351,-53466.669138,-187500.022352,-98422.106912,-182713.463332,-187500.022352,-187500.022352,-187500.022352
1680234182.512757,0,-88935.043089,-76172.487577,-187500.022352,-187500.022352,187500.0,187500.0,-187500.022352,187500.0,-62991.976797,-52176.437041,-187500.022352,-97764.406832,-181884.012447,-187500.022352,-187500.022352,-187500.022352
1680234182.512777,0,-88833.007375,-76111.690833,-187500.022352,-187500.022352,187500.0,187500.0,-187500.022352,187500.0,-63065.379925,-53129.113094,-187500.022352,-98357.37626,-182166.784366,-187500.022352,-187500.022352,-187500.022352
1680234182.512797,0,-88891.077207,-76066.80853,-187500.022352,-187500.022352,187500.0,187500.0,-187500.022352,187500.0,-62946.669811,-52911.76473,-187500.022352,-98070.916304,-182409.792532,-187500.022352,-187500.022352,-187500.022352
1680234182.512816,0,-88870.334789,-76172.420522,-187500.022352,-187500.022352,187500.0,187500.0,-187500.022352,187500.0,-63055.165178,-52300.399816,-187500.022352,-97909.603764,-181588.388275,-187500.022352,-187500.022352,-187500.022352
1680234182.512835,0,-88787.342761,-76005.609453,-187500.022352,-187500.022352,187500.0,187500.0,-187500.022352,187500.0,-62961.667831,-53480.706034,-187500.022352,-98403.443206,-182548.194533,-187500.022352,-187500.022352,-187500.022352
1680234182.512858,0,-88890.250193,-76125.168934,-187500.022352,-187500.022352,187500.0,187500.0,-187500.022352,187500.0,-62948.994392,-52173.866591,-187500.022352,-97735.975413,-181727.460829,-187500.022352,-187500.022352,-187500.022352
1680234182.512878,0,-88767.941447,-76063.187547,-187500.022352,-187500.022352,187500.0,187500.0,-187500.022352,187500.0,-63039.027219,-53114.092721,-187500.022352,-98317.791321,-181991.792559,-187500.022352,-187500.022352,-187500.022352
1680234182.512899,0,-88846.530181,-76027.894143,-187500.022352,-187500.022352,187500.0,187500.0,-187500.022352,187500.0,-62902.793336,-52910.021294,-187500.022352,-98043.177789,-182276.889059,-187500.022352,-187500.022352,-187500.022352
1680234182.512918,0,-88833.141486,-76142.245667,-187500.022352,-187500.022352,187500.0,187500.0,-187500.022352,187500.0,-63037.931983,-52258.04326,-187500.022352,-97886.693226,-181401.192415,-187500.022352,-187500.022352,-187500.022352
1680234182.512939,0,-88767.963799,-75983.302412,-187500.022352,-187500.022352,187500.0,187500.0,-187500.022352,187500.0,-62942.780607,-53474.559304,-187500.022352,-98395.955371,-182389.094816,-187500.022352,-187500.022352,-187500.022352
1680234182.512983,0,-88898.877966,-76129.326359,-187500.022352,-187500.022352,187500.0,187500.0,-187500.022352,187500.0,-62962.919529,-52140.920119,-187500.022352,-97717.065837,-181550.859696,-187500.022352,-187500.022352,-187500.022352
1680234182.513003,0,-88783.006523,-76065.579184,-187500.022352,-187500.022352,187500.0,187500.0,-187500.022352,187500.0,-63053.39939,-53090.824555,-187500.022352,-98310.147024,-181797.153568,-187500.022352,-187500.022352,-187500.022352
1680234182.513023,0,-88845.569056,-76012.404384,-187500.022352,-187500.022352,187500.0,187500.0,-187500.022352,187500.0,-62896.668958,-52904.880393,-187500.022352,-98053.437239,-182113.900139,-187500.022352,-187500.022352,-187500.022352
1680234182.513044,0,-88862.981065,-76154.58383,-187500.022352,-187500.022352,187500.0,187500.0,-187500.022352,187500.0,-63049.219614,-52230.595318,-187500.022352,-97870.622321,-181235.901265,-187500.022352,-187500.022352,-187500.022352
1680234182.513065,0,-88793.757712,-75996.780514,-187500.022352,-187500.022352,187500.0,187500.0,-187500.022352,187500.0,-62962.785418,-53476.235685,-187500.022352,-98403.733778,-182205.385829,-187500.022352,-187500.022352,-187500.022352
1680234182.513084,0,-88930.170409,-76151.76751,-187500.022352,-187500.022352,187500.0,187500.0,-187500.022352,187500.0,-62986.522971,-52129.565433,-187500.022352,-97711.880232,-181347.637635,-187500.022352,-187500.022352,-187500.022352
1680234182.640213,0,-88788.817977,-76073.938736,-187500.022352,-187500.022352,187500.0,187500.0,-187500.022352,187500.0,-63076.578149,-53081.570933,-187500.022352,-98315.310277,-181574.731359,-187500.022352,-187500.022352,-187500.022352
1680234182.640249,0,-88862.511678,-76030.442241,-187500.022352,-187500.022352,187500.0,187500.0,-187500.022352,187500.0,-62912.516345,-52924.393466,-187500.022352,-98061.64033,-181906.543005,-187500.022352,-187500.022352,-187500.022352
1680234182.640277,0,-88837.857704,-76141.64217,-187500.022352,-187500.022352,187500.0,187500.0,-187500.022352,187500.0,-63054.315812,-52218.234803,-187500.022352,-97871.494039,-181001.140893,-187500.022352,-187500.022352,-187500.022352
1680234182.640296,0,-88766.063901,-75982.25188,-187500.022352,-187500.022352,187500.0,187500.0,-187500.022352,187500.0,-62955.588157,-53482.471822,-187500.022352,-98405.007828,-181991.971373,-187500.022352,-187500.022352,-187500.022352
1680234182.640316,0,-88883.634077,-76107.086373,-187500.022352,-187500.022352,187500.0,187500.0,-187500.022352,187500.0,-62952.615375,-52140.383678,-187500.022352,-97708.929802,-181164.509793,-187500.022352,-187500.022352,-187500.022352
1680234182.6404,0,-88771.450671,-76060.393579,-187500.022352,-187500.022352,187500.0,187500.0,-187500.022352,187500.0,-63046.649164,-53075.737128,-187500.022352,-98295.283114,-181385.143862,-187500.022352,-187500.022352,-187500.022352
1680234182.64042,0,-88864.769204,-76035.203163,-187500.022352,-187500.022352,187500.0,187500.0,-187500.022352,187500.0,-62914.595057,-52907.115568,-187500.022352,-98035.958175,-181698.51532,-187500.022352,-187500.022352,-187500.022352
1680234182.64044,0,-88848.765355,-76146.090167,-187500.022352,-187500.022352,187500.0,187500.0,-187500.022352,187500.0,-63066.944548,-52194.899582,-187500.022352,-97851.556283,-180755.294055,-187500.022352,-187500.022352,-187500.022352
1680234182.640458,0,-88789.466177,-76002.10023,-187500.022352,-187500.022352,187500.0,187500.0,-187500.022352,187500.0,-62965.065296,-53502.253115,-187500.022352,-98422.509244,-181757.993312,-187500.022352,-187500.022352,-187500.022352
1680234182.640479,0,-88914.501836,-76139.786975,-187500.022352,-187500.022352,187500.0,187500.0,-187500.022352,187500.0,-62982.611416,-52130.92889,-187500.022352,-97721.871462,-180908.09058,-187500.022352,-187500.022352,-187500.022352
1680234182.640499,0,-88788.102721,-76086.343954,-187500.022352,-187500.022352,187500.0,187500.0,-187500.022352,187500.0,-63083.328376,-53070.685634,-187500.022352,-98319.177129,-181088.022123,-187500.022352,-187500.022352,-187500.022352
1680234182.640519,0,-88854.576809,-76030.755166,-187500.022352,-187500.022352,187500.0,187500.0,-187500.022352,187500.0,-62920.786491,-52947.371059,-187500.022352,-98078.068862,-181436.977558,-187500.022352,-187500.022352,-187500.022352
1680234182.64054,0,-88858.488364,-76163.569231,-187500.022352,-187500.022352,187500.0,187500.0,-187500.022352,187500.0,-63062.384792,-52184.550725,-187500.022352,-97863.536818,-180486.894308,-187500.022352,-187500.022352,-187500.022352
1680234182.64056,0,-88768.23202,-75987.102209,-187500.022352,-187500.022352,187500.0,187500.0,-187500.022352,187500.0,-62961.757238,-53517.407598,-187500.022352,-98443.206959,-181495.673239,-187500.022352,-187500.022352,-187500.022352
1680234182.640583,0,-88889.892565,-76122.531429,-187500.022352,-187500.022352,187500.0,187500.0,-187500.022352,187500.0,-62952.324802,-52136.248605,-187500.022352,-97722.385552,-180686.875366,-187500.022352,-187500.022352,-187500.022352
1680234182.702452,0,-88786.180471,-76083.639393,-187500.022352,-187500.022352,187500.0,187500.0,-187500.022352,187500.0,-63063.278861,-53066.371747,-187500.022352,-98309.543527,-180865.264638,-187500.022352,-187500.022352,-187500.022352
1680234182.70249,0,-88850.48644,-76020.272198,-187500.022352,-187500.022352,187500.0,187500.0,-187500.022352,187500.0,-62908.537735,-52963.598426,-187500.022352,-98086.741339,-181248.574704,-187500.022352,-187500.022352,-187500.022352
1680234182.70251,0,-88848.631245,-76153.712112,-187500.022352,-187500.022352,187500.0,187500.0,-187500.022352,187500.0,-63041.73178,-52181.309722,-187500.022352,-97855.020804,-180307.342745,-187500.022352,-187500.022352,-187500.022352
1680234182.70253,0,-88755.983264,-75980.620203,-187500.022352,-187500.022352,187500.0,187500.0,-187500.022352,187500.0,-62978.543398,-53536.51834,-187500.022352,-98448.459619,-181324.749449,-187500.022352,-187500.022352,-187500.022352
1680234182.702549,0,-88880.057797,-76108.427478,-187500.022352,-187500.022352,187500.0,187500.0,-187500.022352,187500.0,-62956.593985,-52141.836541,-187500.022352,-97720.463302,-180547.869867,-187500.022352,-187500.022352,-187500.022352
1680234182.702569,0,-88773.261162,-76074.385771,-187500.022352,-187500.022352,187500.0,187500.0,-187500.022352,187500.0,-63063.122399,-53073.881933,-187500.022352,-98304.559088,-180725.789753,-187500.022352,-187500.022352,-187500.022352
1680234182.85404,0,-88852.140469,-76018.752279,-187500.022352,-187500.022352,187500.0,187500.0,-187500.022352,187500.0,-62913.276304,-52989.392339,-187500.022352,-98080.86283,-181124.701336,-187500.022352,-187500.022352,-187500.022352
1680234182.854079,0,-88850.888771,-76161.982258,-187500.022352,-187500.022352,187500.0,187500.0,-187500.022352,187500.0,-63066.564568,-52172.369024,-187500.022352,-97843.621414,-180159.55301,-187500.022352,-187500.022352,-187500.022352
1680234182.8541,0,-88761.280627,-75993.919491,-187500.022352,-187500.022352,187500.0,187500.0,-187500.022352,187500.0,-62975.816485,-53549.08002,-187500.022352,-98450.471276,-181172.511717,-187500.022352,-187500.022352,-187500.022352
1680234182.85412,0,-88888.864385,-76122.956112,-187500.022352,-187500.022352,187500.0,187500.0,-187500.022352,187500.0,-62969.46859,-52134.706334,-187500.022352,-97709.868575,-180363.624437,-187500.022352,-187500.022352,-187500.022352
1680234182.854143,0,-88765.728625,-76076.062152,-187500.022352,-187500.022352,187500.0,187500.0,-187500.022352,187500.0,-63051.007754,-53063.376613,-187500.022352,-98319.467702,-180549.076861,-187500.022352,-187500.022352,-187500.022352
1680234182.854214,0,-88810.141541,-75992.690145,-187500.022352,-187500.022352,187500.0,187500.0,-187500.022352,187500.0,-62918.908944,-53007.944287,-187500.022352,-98109.517766,-180970.675465,-187500.022352,-187500.022352,-187500.022352
1680234182.854235,0,-88808.934547,-76123.246684,-187500.022352,-187500.022352,187500.0,187500.0,-187500.022352,187500.0,-63043.609326,-52155.851085,-187500.022352,-97833.876054,-180028.862361,-187500.022352,-187500.022352,-187500.022352
1680234182.854255,0,-88725.808409,-75943.024569,-187500.022352,-187500.022352,187500.0,187500.0,-187500.022352,187500.0,-62960.416133,-53539.267604,-187500.022352,-98437.417857,-181055.321521,-187500.022352,-187500.022352,-187500.022352
1680234182.854275,0,-88842.529218,-76062.807567,-187500.022352,-187500.022352,187500.0,187500.0,-187500.022352,187500.0,-62950.916642,-52107.325447,-187500.022352,-97689.953171,-180272.451672,-187500.022352,-187500.022352,-187500.022352
1680234182.854301,0,-88705.110694,-76001.072049,-187500.022352,-187500.022352,187500.0,187500.0,-187500.022352,187500.0,-63041.843539,-53024.059895,-187500.022352,-98290.857469,-180445.565932,-187500.022352,-187500.022352,-187500.022352
1680234182.854322,0,-88802.899576,-75963.163491,-187500.022352,-187500.022352,187500.0,187500.0,-187500.022352,187500.0,-62893.137383,-52946.74521,-187500.022352,-98061.729737,-180875.434682,-187500.022352,-187500.022352,-187500.022352
1680234182.854341,0,-88794.204747,-76094.211768,-187500.022352,-187500.022352,187500.0,187500.0,-187500.022352,187500.0,-63028.901878,-52094.115567,-187500.022352,-97812.194861,-179909.481693,-187500.022352,-187500.022352,-187500.022352
1680234182.854361,0,-88715.683069,-75934.19563,-187500.022352,-187500.022352,187500.0,187500.0,-187500.022352,187500.0,-62940.411322,-53532.472674,-187500.022352,-98443.452828,-180962.248857,-187500.022352,-187500.022352,-187500.022352
1680234182.85438,0,-88852.565152,-76065.333315,-187500.022352,-187500.022352,187500.0,187500.0,-187500.022352,187500.0,-62939.36079,-52090.472232,-187500.022352,-97683.985255,-180179.289601,-187500.022352,-187500.022352,-187500.022352
1680234182.854401,0,-88735.82199,-76029.302303,-187500.022352,-187500.022352,187500.0,187500.0,-187500.022352,187500.0,-63044.838672,-53003.786862,-187500.022352,-98282.833193,-180302.53712,-187500.022352,-187500.022352,-187500.022352
1680234182.854448,0,-88803.950108,-75963.297601,-187500.022352,-187500.022352,187500.0,187500.0,-187500.022352,187500.0,-62889.270531,-52978.685853,-187500.022352,-98087.344836,-180753.349454,-187500.022352,-187500.022352,-187500.022352
1680234182.854468,0,-88792.729532,-76090.322565,-187500.022352,-187500.022352,187500.0,187500.0,-187500.022352,187500.0,-63018.620076,-52084.236095,-187500.022352,-97810.071446,-179785.742436,-187500.022352,-187500.022352,-187500.022352
1680234182.854487,0,-88716.778304,-75934.642665,-187500.022352,-187500.022352,187500.0,187500.0,-187500.022352,187500.0,-62929.324857,-53547.113067,-187500.022352,-98462.228294,-180856.748623,-187500.022352,-187500.022352,-187500.022352
1680234182.854507,0,-88838.640015,-76059.991248,-187500.022352,-187500.022352,187500.0,187500.0,-187500.022352,187500.0,-62926.486185,-52104.062093,-187500.022352,-97692.322456,-180111.921443,-187500.022352,-187500.022352,-187500.022352
1680234182.854527,0,-88720.242825,-76020.830991,-187500.022352,-187500.022352,187500.0,187500.0,-187500.022352,187500.0,-63023.224535,-53013.688685,-187500.022352,-98290.365731,-180269.948276,-187500.022352,-187500.022352,-187500.022352
1680234183.048893,0,-88790.114378,-75954.423959,-187500.022352,-187500.022352,187500.0,187500.0,-187500.022352,187500.0,-62873.154923,-52998.534202,-187500.022352,-98090.98817,-180751.606018,-187500.022352,-187500.022352,-187500.022352
1680234183.048934,0,-88808.152236,-76111.467315,-187500.022352,-187500.022352,187500.0,187500.0,-187500.022352,187500.0,-63018.016579,-52077.530572,-187500.022352,-97802.293039,-179776.332352,-187500.022352,-187500.022352,-187500.022352
1680234183.048956,0,-88708.754028,-75922.840944,-187500.022352,-187500.022352,187500.0,187500.0,-187500.022352,187500.0,-62924.49688,-53580.886552,-187500.022352,-98478.187439,-180837.839048,-187500.022352,-187500.022352,-187500.022352
1680234183.048976,0,-88845.345538,-76058.247812,-187500.022352,-187500.022352,187500.0,187500.0,-187500.022352,187500.0,-62908.381272,-52097.803604,-187500.022352,-97687.38272,-180090.530824,-187500.022352,-187500.022352,-187500.022352
1680234183.048997,0,-88715.526607,-76009.856285,-187500.022352,-187500.022352,187500.0,187500.0,-187500.022352,187500.0,-63023.515108,-53014.672162,-187500.022352,-98298.166489,-180227.949348,-187500.022352,-187500.022352,-187500.022352
1680234183.049023,0,-88787.946259,-75941.459947,-187500.022352,-187500.022352,187500.0,187500.0,-187500.022352,187500.0,-62862.359031,-53026.585642,-187500.022352,-98103.751016,-180751.226038,-187500.022352,-187500.022352,-187500.022352
1680234183.049109,0,-88814.298965,-76112.540199,-187500.022352,-187500.022352,187500.0,187500.0,-187500.022352,187500.0,-63022.241059,-52020.578327,-187500.022352,-97764.540942,-179721.235302,-187500.022352,-187500.022352,-187500.022352
1680234183.049129,0,-88720.153418,-75927.937141,-187500.022352,-187500.022352,187500.0,187500.0,-187500.022352,187500.0,-62932.632915,-53611.597849,-187500.022352,-98498.907506,-180785.84889,-187500.022352,-187500.022352,-187500.022352
1680234183.049148,0,-88867.384358,-76065.556832,-187500.022352,-187500.022352,187500.0,187500.0,-187500.022352,187500.0,-62929.168395,-51974.287864,-187500.022352,-97632.352726,-179977.386293,-187500.022352,-187500.022352,-187500.022352
1680234183.049169,0,-88694.359505,-76014.840724,-187500.022352,-187500.022352,187500.0,187500.0,-187500.022352,187500.0,-63031.718198,-53093.551468,-187500.022352,-98368.194505,-180105.73001,-187500.022352,-187500.022352,-187500.022352
1680234183.049188,0,-88796.350514,-75926.797202,-187500.022352,-187500.022352,187500.0,187500.0,-187500.022352,187500.0,-62851.451379,-53153.387088,-187500.022352,-98136.630432,-180699.548805,-187500.022352,-187500.022352,-187500.022352
1680234183.049208,0,-88806.095875,-76135.383682,-187500.022352,-187500.022352,187500.0,187500.0,-187500.022352,187500.0,-63027.963105,-51791.852926,-187500.022352,-97675.84922,-179519.28729,-187500.022352,-187500.022352,-187500.022352
1680234183.049227,0,-88676.321647,-75880.26087,-187500.022352,-187500.022352,187500.0,187500.0,-187500.022352,187500.0,-62899.954665,-53961.089726,-187500.022352,-98663.885732,-180757.082195,-187500.022352,-187500.022352,-187500.022352
1680234183.049247,0,-88868.501946,-76074.385771,-187500.022352,-187500.022352,187500.0,187500.0,-187500.022352,187500.0,-62895.506668,-51865.121945,-187500.022352,-97555.239207,-179923.742106,-187500.022352,-187500.022352,-187500.022352
1680234183.049267,0,-88726.367203,-76073.424646,-187500.022352,-187500.022352,187500.0,187500.0,-187500.022352,187500.0,-63034.243945,-53117.691352,-187500.022352,-98379.929171,-180009.63986,-187500.022352,-187500.022352,-187500.022352
1680234183.049286,0,-88846.083146,-75982.922433,-187500.022352,-187500.022352,187500.0,187500.0,-187500.022352,187500.0,-62852.814836,-53305.75893,-187500.022352,-98211.642887,-180697.358334,-187500.022352,-187500.022352,-187500.022352
1680234183.04933,0,-88893.111216,-76245.957762,-187500.022352,-187500.022352,187500.0,187500.0,-187500.022352,187500.0,-63058.920271,-51732.464341,-187500.022352,-97662.616988,-179462.64797,-187500.022352,-187500.022352,-187500.022352
1680234183.049351,0,-88774.155232,-75996.221721,-187500.022352,-187500.022352,187500.0,187500.0,-187500.022352,187500.0,-62954.448218,-54110.175861,-187500.022352,-98749.82819,-180723.375764,-187500.022352,-187500.022352,-187500.022352
1680234183.049371,0,-88943.469696,-76158.42833,-187500.022352,-187500.022352,187500.0,187500.0,-187500.022352,187500.0,-62934.398703,-51886.691378,-187500.022352,-97567.487963,-179885.274754,-187500.022352,-187500.022352,-187500.022352
1680234183.04939,0,-88771.04834,-76126.465336,-187500.022352,-187500.022352,187500.0,187500.0,-187500.022352,187500.0,-63068.531521,-53126.274422,-187500.022352,-98414.976706,-179937.533133,-187500.022352,-187500.022352,-187500.022352
1680234183.04941,0,-88855.604989,-75987.638651,-187500.022352,-187500.022352,187500.0,187500.0,-187500.022352,187500.0,-62860.414429,-53344.785076,-187500.022352,-98237.257986,-180650.374967,-187500.022352,-187500.022352,-187500.022352
1680234183.049432,0,-88888.842033,-76246.06952,-187500.022352,-187500.022352,187500.0,187500.0,-187500.022352,187500.0,-63054.15935,-51683.044634,-187500.022352,-97647.775429,-179409.450818,-187500.022352,-187500.022352,-187500.022352
1680234183.049451,0,-88748.674244,-75975.635764,-187500.022352,-187500.022352,187500.0,187500.0,-187500.022352,187500.0,-62942.579441,-54129.912451,-187500.022352,-98760.646434,-180695.100808,-187500.022352,-187500.022352,-187500.022352
1680234183.049471,0,-88923.464885,-76132.388548,-187500.022352,-187500.022352,187500.0,187500.0,-187500.022352,187500.0,-62923.334589,-51942.660146,-187500.022352,-97570.952484,-179877.362237,-187500.022352,-187500.022352,-187500.022352
1680234183.04949,0,-88751.736433,-76111.199094,-187500.022352,-187500.022352,187500.0,187500.0,-187500.022352,187500.0,-63055.276937,-53155.152876,-187500.022352,-98397.967028,-179939.522438,-187500.022352,-187500.022352,-187500.022352
1680234183.327047,0,-88827.061811,-75979.256747,-187500.022352,-187500.022352,187500.0,187500.0,-187500.022352,187500.0,-62844.567042,-53441.18815,-187500.022352,-98264.080079,-180689.423464,-187500.022352,-187500.022352,-187500.022352
1680234183.327098,0,-88871.005341,-76224.745956,-187500.022352,-187500.022352,187500.0,187500.0,-187500.022352,187500.0,-63041.329448,-51851.86736,-187500.022352,-97680.297217,-179487.50311,-187500.022352,-187500.022352,-187500.022352
1680234183.327173,0,-88734.190313,-75962.559994,-187500.022352,-187500.022352,187500.0,187500.0,-187500.022352,187500.0,-62937.505595,-54151.191312,-187500.022352,-98750.185818,-180754.958779,-187500.022352,-187500.022352,-187500.022352
1680234183.327195,0,-88912.624289,-76129.840449,-187500.022352,-187500.022352,187500.0,187500.0,-187500.022352,187500.0,-62918.797185,-52050.395554,-187500.022352,-97614.225461,-179999.022782,-187500.022352,-187500.022352,-187500.022352
1680234183.327215,0,-88761.392386,-76124.185458,-187500.022352,-187500.022352,187500.0,187500.0,-187500.022352,187500.0,-63057.266242,-53178.443394,-187500.022352,-98399.464595,-180034.539704,-187500.022352,-187500.022352,-187500.022352
1680234183.327235,0,-88840.785782,-75991.483151,-187500.022352,-187500.022352,187500.0,187500.0,-187500.022352,187500.0,-62852.412504,-53466.624435,-187500.022352,-98282.475565,-180792.599117,-187500.022352,-187500.022352,-187500.022352
1680234183.327254,0,-88881.980047,-76235.452442,-187500.022352,-187500.022352,187500.0,187500.0,-187500.022352,187500.0,-63052.326507,-51818.160929,-187500.022352,-97684.901677,-179560.459204,-187500.022352,-187500.022352,-187500.022352
1680234183.327274,0,-88743.868618,-75975.680468,-187500.022352,-187500.022352,187500.0,187500.0,-187500.022352,187500.0,-62932.096473,-54134.092228,-187500.022352,-98765.586169,-180830.708841,-187500.022352,-187500.022352,-187500.022352
1680234183.327294,0,-88914.188911,-76132.4109,-187500.022352,-187500.022352,187500.0,187500.0,-187500.022352,187500.0,-62929.861299,-52061.660834,-187500.022352,-97645.4732,-180067.150899,-187500.022352,-187500.022352,-187500.022352
1680234183.327314,0,-88760.587723,-76113.367213,-187500.022352,-187500.022352,187500.0,187500.0,-187500.022352,187500.0,-63052.974707,-53123.905137,-187500.022352,-98400.604534,-180123.745516,-187500.022352,-187500.022352,-187500.022352
1680234183.327333,0,-88863.361044,-76013.231398,-187500.022352,-187500.022352,187500.0,187500.0,-187500.022352,187500.0,-62866.829379,-53364.521666,-187500.022352,-98261.353166,-180827.534893,-187500.022352,-187500.022352,-187500.022352
1680234183.327352,0,-88893.446492,-76235.966532,-187500.022352,-187500.022352,187500.0,187500.0,-187500.022352,187500.0,-63073.38185,-51854.124886,-187500.022352,-97713.109578,-179610.728277,-187500.022352,-187500.022352,-187500.022352
1680234183.327478,0,-88771.093043,-76013.723137,-187500.022352,-187500.022352,187500.0,187500.0,-187500.022352,187500.0,-62958.359773,-53990.795194,-187500.022352,-98714.154805,-180801.830387,-187500.022352,-187500.022352,-187500.022352
1680234183.327499,0,-88920.380344,-76140.345769,-187500.022352,-187500.022352,187500.0,187500.0,-187500.022352,187500.0,-62931.761197,-52203.683818,-187500.022352,-97736.176579,-180113.329603,-187500.022352,-187500.022352,-187500.022352
1680234183.327519,0,-88798.630392,-76129.907504,-187500.022352,-187500.022352,187500.0,187500.0,-187500.022352,187500.0,-63072.510132,-53063.577779,-187500.022352,-98357.152743,-180102.980745,-187500.022352,-187500.022352,-187500.022352
1680234183.327538,0,-88856.968445,-76011.085631,-187500.022352,-187500.022352,187500.0,187500.0,-187500.022352,187500.0,-62905.27438,-53254.394621,-187500.022352,-98236.095695,-180736.675052,-187500.022352,-187500.022352,-187500.022352
1680234183.327558,0,-88892.172443,-76220.253255,-187500.022352,-187500.022352,187500.0,187500.0,-187500.022352,187500.0,-63049.93487,-51834.969441,-187500.022352,-97709.622706,-179582.050989,-187500.022352,-187500.022352,-187500.022352
1680234183.327577,0,-88784.705256,-76008.090497,-187500.022352,-187500.022352,187500.0,187500.0,-187500.022352,187500.0,-62972.910759,-53799.978352,-187500.022352,-98629.486397,-180674.157223,-187500.022352,-187500.022352,-187500.022352
1680234183.327601,0,-88939.915769,-76144.391435,-187500.022352,-187500.022352,187500.0,187500.0,-187500.022352,187500.0,-62956.14695,-51993.108033,-187500.022352,-97651.575226,-179921.015194,-187500.022352,-187500.022352,-187500.022352
1680234183.327626,0,-88793.824767,-76141.709225,-187500.022352,-187500.022352,187500.0,187500.0,-187500.022352,187500.0,-63090.324472,-52959.575112,-187500.022352,-98347.541493,-179882.816062,-187500.022352,-187500.022352,-187500.022352
1680234183.327645,0,-88859.181268,-76009.78923,-187500.022352,-187500.022352,187500.0,187500.0,-187500.022352,187500.0,-62888.890551,-53342.348736,-187500.022352,-98278.228733,-180606.543196,-187500.022352,-187500.022352,-187500.022352
1680234183.327664,0,-88891.658353,-76223.404851,-187500.022352,-187500.022352,187500.0,187500.0,-187500.022352,187500.0,-63064.709373,-51851.889712,-187500.022352,-97709.376837,-179425.633481,-187500.022352,-187500.022352,-187500.022352
1680234183.327684,0,-88764.588686,-76010.169209,-187500.022352,-187500.022352,187500.0,187500.0,-187500.022352,187500.0,-62970.273253,-53916.542699,-187500.022352,-98677.654407,-180582.783292,-187500.022352,-187500.022352,-187500.022352
1680234183.327769,0,-88908.958603,-76122.240856,-187500.022352,-187500.022352,187500.0,187500.0,-187500.022352,187500.0,-62932.94584,-52170.491477,-187500.022352,-97708.438064,-179915.091981,-187500.022352,-187500.022352,-187500.022352
1680234183.327788,0,-88786.918078,-76132.992045,-187500.022352,-187500.022352,187500.0,187500.0,-187500.022352,187500.0,-63078.232178,-53022.8529,-187500.022352,-98328.02842,-179881.005571,-187500.022352,-187500.022352,-187500.022352
1680234183.327808,0,-88857.817812,-76017.768802,-187500.022352,-187500.022352,187500.0,187500.0,-187500.022352,187500.0,-62898.300636,-53337.632518,-187500.022352,-98263.342472,-180592.23808,-187500.022352,-187500.022352,-187500.022352
1680234183.327827,0,-88895.234632,-76225.617674,-187500.022352,-187500.022352,187500.0,187500.0,-187500.022352,187500.0,-63072.1078,-51866.954788,-187500.022352,-97709.42154,-179409.897853,-187500.022352,-187500.022352,-187500.022352
1680234183.327847,0,-88773.171755,-76007.732869,-187500.022352,-187500.022352,187500.0,187500.0,-187500.022352,187500.0,-62964.908834,-53834.221224,-187500.022352,-98646.607834,-180537.051623,-187500.022352,-187500.022352,-187500.022352
1680234183.32787,0,-88926.191798,-76135.786013,-187500.022352,-187500.022352,187500.0,187500.0,-187500.022352,187500.0,-62954.425866,-52046.707517,-187500.022352,-97666.908522,-179850.696606,-187500.022352,-187500.022352,-187500.022352
1680234183.32789,0,-88783.252392,-76133.528487,-187500.022352,-187500.022352,187500.0,187500.0,-187500.022352,187500.0,-63083.797763,-52964.067812,-187500.022352,-98329.458932,-179808.943547,-187500.022352,-187500.022352,-187500.022352
1680234183.327909,0,-88858.488364,-76025.726023,-187500.022352,-187500.022352,187500.0,187500.0,-187500.022352,187500.0,-62899.418223,-53363.784059,-187500.022352,-98277.111146,-180555.670626,-187500.022352,-187500.022352,-187500.022352
1680234183.327928,0,-88892.015981,-76218.018081,-187500.022352,-187500.022352,187500.0,187500.0,-187500.022352,187500.0,-63061.669536,-51998.204231,-187500.022352,-97758.394213,-179432.741336,-187500.022352,-187500.022352,-187500.022352
1680234183.327948,0,-88768.23202,-76017.768802,-187500.022352,-187500.022352,187500.0,187500.0,-187500.022352,187500.0,-62979.97391,-53824.587622,-187500.022352,-98628.74879,-180549.747413,-187500.022352,-187500.022352,-187500.022352
1680234183.328024,0,-88927.868179,-76146.805423,-187500.022352,-187500.022352,187500.0,187500.0,-187500.022352,187500.0,-62950.24609,-52258.155019,-187500.022352,-97762.126954,-179926.73724,-187500.022352,-187500.022352,-187500.022352
1680234183.328044,0,-88800.306773,-76135.115461,-187500.022352,-187500.022352,187500.0,187500.0,-187500.022352,187500.0,-63089.13983,-52978.998778,-187500.022352,-98315.287926,-179868.712112,-187500.022352,-187500.022352,-187500.022352
1680234183.797795,0,-88860.61178,-76040.16525,-187500.022352,-187500.022352,187500.0,187500.0,-187500.022352,187500.0,-62915.198554,-53250.259548,-187500.022352,-98255.295844,-180543.891256,-187500.022352,-187500.022352,-187500.022352
1680234183.797843,0,-88894.988763,-76217.101659,-187500.022352,-187500.022352,187500.0,187500.0,-187500.022352,187500.0,-63066.162236,-52017.940821,-187500.022352,-97782.154117,-179448.588723,-187500.022352,-187500.022352,-187500.022352
1680234183.79788,0,-88788.080369,-76035.046701,-187500.022352,-187500.022352,187500.0,187500.0,-187500.022352,187500.0,-62993.340253,-53700.334275,-187500.022352,-98581.452499,-180498.181939,-187500.022352,-187500.022352,-187500.022352
1680234183.79792,0,-88920.469751,-76137.820022,-187500.022352,-187500.022352,187500.0,187500.0,-187500.022352,187500.0,-62968.373354,-52263.273569,-187500.022352,-97773.056957,-179864.666446,-187500.022352,-187500.022352,-187500.022352
1680234183.797941,0,-88807.682849,-76136.38951,-187500.022352,-187500.022352,187500.0,187500.0,-187500.022352,187500.0,-63090.190362,-52965.900655,-187500.022352,-98304.335571,-179817.325451,-187500.022352,-187500.022352,-187500.022352
1680234183.797961,0,-88847.737175,-76026.7095,-187500.022352,-187500.022352,187500.0,187500.0,-187500.022352,187500.0,-62922.664037,-53259.289653,-187500.022352,-98264.750631,-180506.362677,-187500.022352,-187500.022352,-187500.022352
1680234183.79798,0,-88886.204527,-76209.837342,-187500.022352,-187500.022352,187500.0,187500.0,-187500.022352,187500.0,-63063.278861,-52047.959214,-187500.022352,-97794.671094,-179451.650912,-187500.022352,-187500.022352,-187500.022352
1680234183.798,0,-88771.584782,-76025.971893,-187500.022352,-187500.022352,187500.0,187500.0,-187500.022352,187500.0,-62995.776593,-53660.838742,-187500.022352,-98575.395176,-180493.1975,-187500.022352,-187500.022352,-187500.022352
1680234183.79802,0,-88898.0286,-76120.855048,-187500.022352,-187500.022352,187500.0,187500.0,-187500.022352,187500.0,-62953.844721,-52268.347415,-187500.022352,-97784.277533,-179906.397153,-187500.022352,-187500.022352,-187500.022352
1680234183.798205,0,-88801.42436,-76138.267057,-187500.022352,-187500.022352,187500.0,187500.0,-187500.022352,187500.0,-63087.016414,-52897.303152,-187500.022352,-98268.081041,-179826.087335,-187500.022352,-187500.022352,-187500.022352
1680234183.798225,0,-88856.744928,-76048.502451,-187500.022352,-187500.022352,187500.0,187500.0,-187500.022352,187500.0,-62928.810767,-53229.114798,-187500.022352,-98253.127724,-180508.821369,-187500.022352,-187500.022352,-187500.022352
1680234183.798245,0,-88893.893527,-76218.599226,-187500.022352,-187500.022352,187500.0,187500.0,-187500.022352,187500.0,-63067.860969,-52017.896118,-187500.022352,-97786.356245,-179430.595568,-187500.022352,-187500.022352,-187500.022352
1680234183.798265,0,-88779.474947,-76031.649236,-187500.022352,-187500.022352,187500.0,187500.0,-187500.022352,187500.0,-62997.765898,-53657.977719,-187500.022352,-98574.612865,-180460.876877,-187500.022352,-187500.022352,-187500.022352
1680234183.798285,0,-88912.557234,-76134.780185,-187500.022352,-187500.022352,187500.0,187500.0,-187500.022352,187500.0,-62949.977869,-52262.871237,-187500.022352,-97788.367902,-179877.317533,-187500.022352,-187500.022352,-187500.022352
1680234183.798306,0,-88804.888881,-76141.396301,-187500.022352,-187500.022352,187500.0,187500.0,-187500.022352,187500.0,-63080.757926,-52894.822108,-187500.022352,-98276.530001,-179769.604477,-187500.022352,-187500.022352,-187500.022352
1680234183.798325,0,-88850.732309,-76031.716291,-187500.022352,-187500.022352,187500.0,187500.0,-187500.022352,187500.0,-62910.035301,-53256.540389,-187500.022352,-98268.57278,-180474.466738,-187500.022352,-187500.022352,-187500.022352
1680234183.798346,2,-88905.516434,-76227.048186,-187500.022352,-187500.022352,187500.0,187500.0,-187500.022352,187500.0,-63063.502379,-51978.244123,-187500.022352,-97760.964663,-179359.539373,-187500.022352,-187500.022352,-187500.022352
1680234183.798366,2,-88771.294209,-76025.010768,-187500.022352,-187500.022352,187500.0,187500.0,-187500.022352,187500.0,-62994.122564,-53658.782382,-187500.022352,-98582.726548,-180377.974257,-187500.022352,-187500.022352,-187500.022352
1680234183.798386,2,-88908.15394,-76137.194173,-187500.022352,-187500.022352,187500.0,187500.0,-187500.022352,187500.0,-62947.876805,-52261.485429,-187500.022352,-97789.664303,-179811.022259,-187500.022352,-187500.022352,-187500.022352
1680234183.79847,2,-88784.392331,-76135.36133,-187500.022352,-187500.022352,187500.0,187500.0,-187500.022352,187500.0,-63082.85899,-52872.224494,-187500.022352,-98282.073233,-179697.497749,-187500.022352,-187500.022352,-187500.022352
1680234183.79849,2,-88838.103573,-76021.613302,-187500.022352,-187500.022352,187500.0,187500.0,-187500.022352,187500.0,-62911.465813,-53269.817325,-187500.022352,-98271.836134,-180409.646679,-187500.022352,-187500.022352,-187500.022352
1680234183.79851,2,-88878.336713,-76199.712002,-187500.022352,-187500.022352,187500.0,187500.0,-187500.022352,187500.0,-63049.845463,-51967.403527,-187500.022352,-97759.176524,-179300.351954,-187500.022352,-187500.022352,-187500.022352
1680234183.798531,2,-88762.621732,-76021.054509,-187500.022352,-187500.022352,187500.0,187500.0,-187500.022352,187500.0,-62990.769802,-53668.103059,-187500.022352,-98581.966589,-180305.331088,-187500.022352,-187500.022352,-187500.022352
1680234183.798551,2,-88902.186024,-76130.153373,-187500.022352,-187500.022352,187500.0,187500.0,-187500.022352,187500.0,-62936.969154,-52259.496124,-187500.022352,-97783.830498,-179733.64052,-187500.022352,-187500.022352,-187500.022352
1680234183.798578,2,-88791.634296,-76138.043539,-187500.022352,-187500.022352,187500.0,187500.0,-187500.022352,187500.0,-63070.766696,-52869.117602,-187500.022352,-98273.288998,-179578.161785,-187500.022352,-187500.022352,-187500.022352
1680234183.798597,2,-88824.916044,-76011.555017,-187500.022352,-187500.022352,187500.0,187500.0,-187500.022352,187500.0,-62896.467793,-53302.830851,-187500.022352,-98292.958533,-180310.74021,-187500.022352,-187500.022352,-187500.022352
1680234183.798617,2,-88874.358103,-76195.599281,-187500.022352,-187500.022352,187500.0,187500.0,-187500.022352,187500.0,-63023.313942,-51950.192684,-187500.022352,-97751.353413,-179200.998449,-187500.022352,-187500.022352,-187500.022352
1680234183.798637,2,-88760.386558,-76015.533628,-187500.022352,-187500.022352,187500.0,187500.0,-187500.022352,187500.0,-62976.285872,-53676.216743,-187500.022352,-98593.298923,-180213.264252,-187500.022352,-187500.022352,-187500.022352
1680234183.798656,2,-88888.774978,-76107.108725,-187500.022352,-187500.022352,187500.0,187500.0,-187500.022352,187500.0,-62917.143156,-52261.396022,-187500.022352,-97784.12107,-179667.859336,-187500.022352,-187500.022352,-187500.022352
1680234183.79873,2,-88804.665363,-76147.319513,-187500.022352,-187500.022352,187500.0,187500.0,-187500.022352,187500.0,-63056.21571,-52827.342192,-187500.022352,-98251.965434,-179493.046342,-187500.022352,-187500.022352,-187500.022352
1680234183.798751,2,-88822.569111,-76004.983605,-187500.022352,-187500.022352,187500.0,187500.0,-187500.022352,187500.0,-62895.730185,-53314.096131,-187500.022352,-98303.597963,-180228.597549,-187500.022352,-187500.022352,-187500.022352
1680234183.79877,2,-88865.015073,-76179.528377,-187500.022352,-187500.022352,187500.0,187500.0,-187500.022352,187500.0,-63017.971875,-51912.574698,-187500.022352,-97732.689706,-179120.509818,-187500.022352,-187500.022352,-187500.022352
1680234183.79879,2,-88762.822898,-76006.21295,-187500.022352,-187500.022352,187500.0,187500.0,-187500.022352,187500.0,-62961.667831,-53694.813394,-187500.022352,-98594.952952,-180126.986519,-187500.022352,-187500.022352,-187500.022352
1680234183.79881,2,-88898.453283,-76106.818152,-187500.022352,-187500.022352,187500.0,187500.0,-187500.022352,187500.0,-62916.986694,-52225.566176,-187500.022352,-97758.170695,-179557.955808,-187500.022352,-187500.022352,-187500.022352
1680234183.79883,2,-88783.766482,-76122.084394,-187500.022352,-187500.022352,187500.0,187500.0,-187500.022352,187500.0,-63059.076733,-52802.4647,-187500.022352,-98246.444553,-179359.226448,-187500.022352,-187500.022352,-187500.022352
1680234183.798849,2,-88815.930643,-75987.124561,-187500.022352,-187500.022352,187500.0,187500.0,-187500.022352,187500.0,-62880.016909,-53339.532416,-187500.022352,-98311.37637,-180134.42965,-187500.022352,-187500.022352,-187500.022352
1680234183.798868,2,-88881.510661,-76198.281491,-187500.022352,-187500.022352,187500.0,187500.0,-187500.022352,187500.0,-63018.955352,-51846.592348,-187500.022352,-97706.314648,-178968.182679,-187500.022352,-187500.022352,-187500.022352
1680234183.798888,2,-88756.095023,-76014.348985,-187500.022352,-187500.022352,187500.0,187500.0,-187500.022352,187500.0,-62973.871884,-53717.925098,-187500.022352,-98630.022839,-179970.121976,-187500.022352,-187500.022352,-187500.022352
1680234183.798908,2,-88925.141266,-76134.042577,-187500.022352,-187500.022352,187500.0,187500.0,-187500.022352,187500.0,-62933.45993,-52234.439818,-187500.022352,-97769.614788,-179390.809463,-187500.022352,-187500.022352,-187500.022352
1680234183.798927,2,-88784.548793,-76131.226257,-187500.022352,-187500.022352,187500.0,187500.0,-187500.022352,187500.0,-63087.798725,-52800.229526,-187500.022352,-98269.891533,-179143.889742,-187500.022352,-187500.022352,-187500.022352
1680234183.799001,2,-88823.373774,-76002.524913,-187500.022352,-187500.022352,187500.0,187500.0,-187500.022352,187500.0,-62865.063592,-53387.029873,-187500.022352,-98349.754316,-179975.061712,-187500.022352,-187500.022352,-187500.022352
1680234183.79902,2,-88878.649638,-76200.360203,-187500.022352,-187500.022352,187500.0,187500.0,-187500.022352,187500.0,-63020.72114,-51894.156861,-187500.022352,-97735.707192,-178813.776829,-187500.022352,-187500.022352,-187500.022352
1680234183.799041,2,-88761.124165,-76024.831954,-187500.022352,-187500.022352,187500.0,187500.0,-187500.022352,187500.0,-62986.165343,-53709.967877,-187500.022352,-98630.045191,-179802.729762,-187500.022352,-187500.022352,-187500.022352
1680234183.79906,2,-88914.501836,-76123.157277,-187500.022352,-187500.022352,187500.0,187500.0,-187500.022352,187500.0,-62938.265555,-52268.839153,-187500.022352,-97792.793547,-179243.220895,-187500.022352,-187500.022352,-187500.022352
1680234183.79908,2,-88805.760599,-76146.827775,-187500.022352,-187500.022352,187500.0,187500.0,-187500.022352,187500.0,-63071.504303,-52796.854412,-187500.022352,-98263.83421,-179014.763715,-187500.022352,-187500.022352,-187500.022352
1680234183.799099,2,-88842.015128,-76016.852381,-187500.022352,-187500.022352,187500.0,187500.0,-187500.022352,187500.0,-62905.542601,-53357.14559,-187500.022352,-98343.674641,-179781.115625,-187500.022352,-187500.022352,-187500.022352
1680234183.799129,2,-88909.830321,-76226.176468,-187500.022352,-187500.022352,187500.0,187500.0,-187500.022352,187500.0,-63050.203091,-51865.412517,-187500.022352,-97730.409828,-178593.343925,-187500.022352,-187500.022352,-187500.022352
1680234183.799149,2,-88761.124165,-76024.183753,-187500.022352,-187500.022352,187500.0,187500.0,-187500.022352,187500.0,-62991.529762,-53709.453787,-187500.022352,-98650.92172,-179574.831375,-187500.022352,-187500.022352,-187500.022352
1680234183.799168,2,-88917.385211,-76125.615969,-187500.022352,-187500.022352,187500.0,187500.0,-187500.022352,187500.0,-62923.98279,-52270.98492,-187500.022352,-97806.182242,-179057.276733,-187500.022352,-187500.022352,-187500.022352
1680234183.799188,2,-88794.160043,-76140.7481,-187500.022352,-187500.022352,187500.0,187500.0,-187500.022352,187500.0,-63073.851237,-52785.16445,-187500.022352,-98261.219056,-178789.748703,-187500.022352,-187500.022352,-187500.022352
1680234183.79926,2,-88833.946149,-76005.430639,-187500.022352,-187500.022352,187500.0,187500.0,-187500.022352,187500.0,-62897.898304,-53369.148477,-187500.022352,-98358.672662,-179593.249213,-187500.022352,-187500.022352,-187500.022352
1680234183.79928,2,-88883.254097,-76207.356299,-187500.022352,-187500.022352,187500.0,187500.0,-187500.022352,187500.0,-63033.215765,-51848.089915,-187500.022352,-97723.816064,-178424.476495,-187500.022352,-187500.022352,-187500.022352
1680234183.7993,2,-88750.127107,-76012.382032,-187500.022352,-187500.022352,187500.0,187500.0,-187500.022352,187500.0,-62972.508427,-53700.893068,-187500.022352,-98644.909101,-179405.449856,-187500.022352,-187500.022352,-187500.022352
1680234183.79932,2,-88906.902243,-76118.083431,-187500.022352,-187500.022352,187500.0,187500.0,-187500.022352,187500.0,-62929.101339,-52240.161865,-187500.022352,-97791.743015,-178875.311181,-187500.022352,-187500.022352,-187500.022352
1680234183.799339,2,-88787.633334,-76142.111557,-187500.022352,-187500.022352,187500.0,187500.0,-187500.022352,187500.0,-63069.403239,-52750.765115,-187500.022352,-98259.497971,-178625.552788,-187500.022352,-187500.022352,-187500.022352
1680234183.799358,2,-88827.330032,-76007.487,-187500.022352,-187500.022352,187500.0,187500.0,-187500.022352,187500.0,-62899.529982,-53375.831649,-187500.022352,-98366.093441,-179427.488676,-187500.022352,-187500.022352,-187500.022352
1680234183.799377,2,-88883.142338,-76197.7674,-187500.022352,-187500.022352,187500.0,187500.0,-187500.022352,187500.0,-63022.442224,-51803.319371,-187500.022352,-97715.94825,-178265.443834,-187500.022352,-187500.022352,-187500.022352
1680234183.799398,2,-88762.442918,-76025.30134,-187500.022352,-187500.022352,187500.0,187500.0,-187500.022352,187500.0,-62981.225608,-53681.82703,-187500.022352,-98648.48538,-179232.670871,-187500.022352,-187500.022352,-187500.022352
1680234183.799417,2,-88913.540711,-76113.791897,-187500.022352,-187500.022352,187500.0,187500.0,-187500.022352,187500.0,-62927.246145,-52243.291109,-187500.022352,-97803.455329,-178732.528237,-187500.022352,-187500.022352,-187500.022352
1680234183.799436,2,-88786.314581,-76140.99397,-187500.022352,-187500.022352,187500.0,187500.0,-187500.022352,187500.0,-63066.855141,-52713.661219,-187500.022352,-98252.211303,-178450.493926,-187500.022352,-187500.022352,-187500.022352
1680234184.278639,2,-88815.863587,-75988.108037,-187500.022352,-187500.022352,187500.0,187500.0,-187500.022352,187500.0,-62881.223903,-53422.278574,-187500.022352,-98390.412139,-179315.864064,-187500.022352,-187500.022352,-187500.022352
1680234184.278794,2,-88897.536862,-76219.225075,-187500.022352,-187500.022352,187500.0,187500.0,-187500.022352,187500.0,-63024.766806,-51769.277664,-187500.022352,-97677.413842,-178134.104983,-187500.022352,-187500.022352,-187500.022352
1680234184.278818,2,-88755.223305,-76023.848477,-187500.022352,-187500.022352,187500.0,187500.0,-187500.022352,187500.0,-62980.040965,-53718.014505,-187500.022352,-98665.316244,-179100.482655,-187500.022352,-187500.022352,-187500.022352
1680234184.278839,2,-88907.885719,-76115.669443,-187500.022352,-187500.022352,187500.0,187500.0,-187500.022352,187500.0,-62906.034339,-52274.136516,-187500.022352,-97820.241489,-178648.12805,-187500.022352,-187500.022352,-187500.022352
1680234184.278859,2,-88802.474892,-76165.759702,-187500.022352,-187500.022352,187500.0,187500.0,-187500.022352,187500.0,-63059.41201,-52697.210335,-187500.022352,-98248.791486,-178337.103526,-187500.022352,-187500.022352,-187500.022352
1680234184.278879,2,-88829.520503,-76003.888369,-187500.022352,-187500.022352,187500.0,187500.0,-187500.022352,187500.0,-62893.115031,-53455.426211,-187500.022352,-98418.48593,-179193.264746,-187500.022352,-187500.022352,-187500.022352
1680234184.278899,2,-88883.879946,-76201.388383,-187500.022352,-187500.022352,187500.0,187500.0,-187500.022352,187500.0,-63018.508317,-51780.230019,-187500.022352,-97697.396302,-178030.370537,-187500.022352,-187500.022352,-187500.022352
1680234184.278919,2,-88738.615959,-76011.219741,-187500.022352,-187500.022352,187500.0,187500.0,-187500.022352,187500.0,-62968.865093,-53741.483836,-187500.022352,-98679.911933,-179015.188398,-187500.022352,-187500.022352,-187500.022352
1680234184.278939,2,-88920.000365,-76120.251551,-187500.022352,-187500.022352,187500.0,187500.0,-187500.022352,187500.0,-62908.381272,-52269.666167,-187500.022352,-97800.504899,-178551.590866,-187500.022352,-187500.022352,-187500.022352
1680234184.278959,2,-88798.786855,-76160.86467,-187500.022352,-187500.022352,187500.0,187500.0,-187500.022352,187500.0,-63081.741402,-52669.181248,-187500.022352,-98230.77598,-178205.161179,-187500.022352,-187500.022352,-187500.022352
1680234184.278978,2,-88826.14539,-76008.984567,-187500.022352,-187500.022352,187500.0,187500.0,-187500.022352,187500.0,-62898.188877,-53450.955862,-187500.022352,-98426.018468,-179081.483672,-187500.022352,-187500.022352,-187500.022352
1680234184.279069,2,-88887.880908,-76215.6935,-187500.022352,-187500.022352,187500.0,187500.0,-187500.022352,187500.0,-63034.579222,-51757.855923,-187500.022352,-97685.125194,-177893.153178,-187500.022352,-187500.022352,-187500.022352
1680234184.27909,2,-88751.043528,-76024.586084,-187500.022352,-187500.022352,187500.0,187500.0,-187500.022352,187500.0,-62977.001128,-53745.864778,-187500.022352,-98688.316189,-178863.64357,-187500.022352,-187500.022352,-187500.022352
1680234184.27911,2,-88919.776847,-76120.385661,-187500.022352,-187500.022352,187500.0,187500.0,-187500.022352,187500.0,-62925.435653,-52284.127746,-187500.022352,-97811.881937,-178395.083951,-187500.022352,-187500.022352,-187500.022352
1680234184.27913,2,-88796.864605,-76166.273793,-187500.022352,-187500.022352,187500.0,187500.0,-187500.022352,187500.0,-63093.341958,-52675.327978,-187500.022352,-98231.647698,-178019.820514,-187500.022352,-187500.022352,-187500.022352
1680234184.27915,2,-88827.486494,-76011.510314,-187500.022352,-187500.022352,187500.0,187500.0,-187500.022352,187500.0,-62895.439612,-53491.68074,-187500.022352,-98433.014564,-178895.204234,-187500.022352,-187500.022352,-187500.022352
1680234184.27917,2,-88899.392056,-76226.802317,-187500.022352,-187500.022352,187500.0,187500.0,-187500.022352,187500.0,-63036.99321,-51741.472094,-187500.022352,-97671.825906,-177685.796045,-187500.022352,-187500.022352,-187500.022352
1680234184.27919,2,-88754.083366,-76026.687148,-187500.022352,-187500.022352,187500.0,187500.0,-187500.022352,187500.0,-62988.109945,-53757.42063,-187500.022352,-98699.782634,-178642.808335,-187500.022352,-187500.022352,-187500.022352
1680234184.279209,2,-88906.544615,-76111.288501,-187500.022352,-187500.022352,187500.0,187500.0,-187500.022352,187500.0,-62936.365656,-52277.846906,-187500.022352,-97806.226946,-178177.445016,-187500.022352,-187500.022352,-187500.022352
1680234184.279229,2,-88797.982192,-76169.939479,-187500.022352,-187500.022352,187500.0,187500.0,-187500.022352,187500.0,-63079.036841,-52655.256111,-187500.022352,-98224.405733,-177829.11543,-187500.022352,-187500.022352,-187500.022352
1680234184.279249,2,-88825.899521,-76007.576407,-187500.022352,-187500.022352,187500.0,187500.0,-187500.022352,187500.0,-62909.677674,-53506.388188,-187500.022352,-98435.249738,-178704.342688,-187500.022352,-187500.022352,-187500.022352
1680234184.279269,2,-88900.46494,-76225.081232,-187500.022352,-187500.022352,187500.0,187500.0,-187500.022352,187500.0,-63038.311963,-51708.190347,-187500.022352,-97664.025147,-177506.445647,-187500.022352,-187500.022352,-187500.022352
1680234184.279315,2,-88765.393348,-76045.529669,-187500.022352,-187500.022352,187500.0,187500.0,-187500.022352,187500.0,-63008.114756,-53760.348709,-187500.022352,-98703.224802,-178445.621246,-187500.022352,-187500.022352,-187500.022352
1680234184.279334,2,-88923.040202,-76120.162144,-187500.022352,-187500.022352,187500.0,187500.0,-187500.022352,187500.0,-62928.184918,-52300.332761,-187500.022352,-97829.450408,-178023.754421,-187500.022352,-187500.022352,-187500.022352
1680234184.279354,2,-88794.294154,-76175.885043,-187500.022352,-187500.022352,187500.0,187500.0,-187500.022352,187500.0,-63083.954225,-52642.761486,-187500.022352,-98229.390172,-177641.673701,-187500.022352,-187500.022352,-187500.022352
1680234184.279375,2,-88822.703221,-76011.912645,-187500.022352,-187500.022352,187500.0,187500.0,-187500.022352,187500.0,-62894.567894,-53526.996497,-187500.022352,-98459.23316,-178558.542259,-187500.022352,-187500.022352,-187500.022352
1680234184.279396,2,-88925.543597,-76253.803224,-187500.022352,-187500.022352,187500.0,187500.0,-187500.022352,187500.0,-63039.563661,-51714.225318,-187500.022352,-97663.891037,-177347.48004,-187500.022352,-187500.022352,-187500.022352
1680234184.279415,2,-88766.779157,-76049.441224,-187500.022352,-187500.022352,187500.0,187500.0,-187500.022352,187500.0,-63017.480137,-53762.896808,-187500.022352,-98728.370515,-178269.24363,-187500.022352,-187500.022352,-187500.022352
1680234184.279435,2,-88940.116935,-76144.614952,-187500.022352,-187500.022352,187500.0,187500.0,-187500.022352,187500.0,-62942.668848,-52324.40559,-187500.022352,-97858.530028,-177874.042436,-187500.022352,-187500.022352,-187500.022352
1680234184.279454,2,-88816.66825,-76202.304805,-187500.022352,-187500.022352,187500.0,187500.0,-187500.022352,187500.0,-63114.799632,-52627.718762,-187500.022352,-98237.928538,-177456.623609,-187500.022352,-187500.022352,-187500.022352
1680234184.279474,2,-88842.640977,-76028.475288,-187500.022352,-187500.022352,187500.0,187500.0,-187500.022352,187500.0,-62909.096528,-53566.514381,-187500.022352,-98492.313742,-178400.403667,-187500.022352,-187500.022352,-187500.022352
1680234184.279494,2,-88911.685516,-76246.382445,-187500.022352,-187500.022352,187500.0,187500.0,-187500.022352,187500.0,-63057.221539,-51724.305954,-187500.022352,-97679.850183,-177194.61646,-187500.022352,-187500.022352,-187500.022352
1680234184.279537,2,-88743.89097,-76042.914515,-187500.022352,-187500.022352,187500.0,187500.0,-187500.022352,187500.0,-63004.493774,-53781.113479,-187500.022352,-98730.002192,-178162.245829,-187500.022352,-187500.022352,-187500.022352
1680234184.279557,2,-88912.087847,-76120.787993,-187500.022352,-187500.022352,187500.0,187500.0,-187500.022352,187500.0,-62924.742749,-52343.069296,-187500.022352,-97846.616548,-177781.662677,-187500.022352,-187500.022352,-187500.022352
1680234184.279577,2,-88797.758674,-76189.161979,-187500.022352,-187500.022352,187500.0,187500.0,-187500.022352,187500.0,-63090.279769,-52621.303811,-187500.022352,-98216.783788,-177379.040704,-187500.022352,-187500.022352,-187500.022352
1680234184.279596,2,-88805.939413,-76006.101192,-187500.022352,-187500.022352,187500.0,187500.0,-187500.022352,187500.0,-62909.789432,-53576.595018,-187500.022352,-98486.502288,-178330.263892,-187500.022352,-187500.022352,-187500.022352
1680234184.279617,2,-88904.17533,-76239.542811,-187500.022352,-187500.022352,187500.0,187500.0,-187500.022352,187500.0,-63018.821242,-51718.561556,-187500.022352,-97663.80163,-177155.456204,-187500.022352,-187500.022352,-187500.022352
1680234184.279637,2,-88757.950217,-76053.218669,-187500.022352,-187500.022352,187500.0,187500.0,-187500.022352,187500.0,-63005.209029,-53763.276787,-187500.022352,-98712.500776,-178068.413206,-187500.022352,-187500.022352,-187500.022352
1680234184.279656,2,-88924.604824,-76131.673292,-187500.022352,-187500.022352,187500.0,187500.0,-187500.022352,187500.0,-62932.632915,-52353.418154,-187500.022352,-97851.332766,-177693.954431,-187500.022352,-187500.022352,-187500.022352
1680234184.279676,2,-88804.665363,-76186.502121,-187500.022352,-187500.022352,187500.0,187500.0,-187500.022352,187500.0,-63099.555743,-52592.492413,-187500.022352,-98209.228898,-177263.593944,-187500.022352,-187500.022352,-187500.022352
1680234184.279696,2,-88822.30089,-76013.141991,-187500.022352,-187500.022352,187500.0,187500.0,-187500.022352,187500.0,-62912.784566,-53591.660093,-187500.022352,-98484.468279,-178230.373946,-187500.022352,-187500.022352,-187500.022352
1680234184.279716,2,-88913.428952,-76248.394102,-187500.022352,-187500.022352,187500.0,187500.0,-187500.022352,187500.0,-63038.513129,-51714.0018,-187500.022352,-97646.434325,-177019.378784,-187500.022352,-187500.022352,-187500.022352
1680234184.279736,2,-88769.059034,-76071.055361,-187500.022352,-187500.022352,187500.0,187500.0,-187500.022352,187500.0,-63022.7775,-53746.02124,-187500.022352,-98700.587297,-177933.900408,-187500.022352,-187500.022352,-187500.022352
1680234184.279778,2,-88906.946946,-76124.118402,-187500.022352,-187500.022352,187500.0,187500.0,-187500.022352,187500.0,-62933.303467,-52402.94962,-187500.022352,-97867.560132,-177599.63007,-187500.022352,-187500.022352,-187500.022352
1680234184.279798,2,-88803.234852,-76189.56431,-187500.022352,-187500.022352,187500.0,187500.0,-187500.022352,187500.0,-63090.436231,-52597.722721,-187500.022352,-98188.352369,-177172.309419,-187500.022352,-187500.022352,-187500.022352
1680234184.279817,2,-88810.186244,-76010.459782,-187500.022352,-187500.022352,187500.0,187500.0,-187500.022352,187500.0,-62904.648531,-53571.454116,-187500.022352,-98479.774413,-178130.752221,-187500.022352,-187500.022352,-187500.022352
1680234184.279838,2,-88898.363876,-76227.696386,-187500.022352,-187500.022352,187500.0,187500.0,-187500.022352,187500.0,-63026.35378,-51798.044359,-187500.022352,-97688.992046,-176975.189385,-187500.022352,-187500.022352,-187500.022352
1680234184.279857,2,-88749.568313,-76048.61421,-187500.022352,-187500.022352,187500.0,187500.0,-187500.022352,187500.0,-63001.766861,-53727.648107,-187500.022352,-98687.600933,-177874.198899,-187500.022352,-187500.022352,-187500.022352
1680234184.279877,2,-88892.194795,-76102.571321,-187500.022352,-187500.022352,187500.0,187500.0,-187500.022352,187500.0,-62904.469717,-52443.629795,-187500.022352,-97893.53286,-177568.829366,-187500.022352,-187500.022352,-187500.022352
1680234184.279897,2,-88809.470988,-76199.130857,-187500.022352,-187500.022352,187500.0,187500.0,-187500.022352,187500.0,-63087.709318,-52588.446747,-187500.022352,-98176.930627,-177109.724535,-187500.022352,-187500.022352,-187500.022352
1680234184.279916,2,-88808.755733,-76011.823238,-187500.022352,-187500.022352,187500.0,187500.0,-187500.022352,187500.0,-62910.862316,-53592.710625,-187500.022352,-98490.972637,-178066.490956,-187500.022352,-187500.022352,-187500.022352
1680234184.279937,2,-88905.292917,-76238.872259,-187500.022352,-187500.022352,187500.0,187500.0,-187500.022352,187500.0,-63042.044704,-51761.678071,-187500.022352,-97674.396357,-176879.300401,-187500.022352,-187500.022352,-187500.022352
1680234184.279956,2,-88744.539171,-76050.894088,-187500.022352,-187500.022352,187500.0,187500.0,-187500.022352,187500.0,-63011.154593,-53742.824941,-187500.022352,-98713.19368,-177789.463435,-187500.022352,-187500.022352,-187500.022352
1680234184.279999,2,-88916.580548,-76123.738423,-187500.022352,-187500.022352,187500.0,187500.0,-187500.022352,187500.0,-62915.600886,-52421.233347,-187500.022352,-97890.247153,-177485.882042,-187500.022352,-187500.022352,-187500.022352
1680234184.280018,2,-88814.23191,-76203.712965,-187500.022352,-187500.022352,187500.0,187500.0,-187500.022352,187500.0,-63099.600446,-52547.811275,-187500.022352,-98186.899505,-176969.400283,-187500.022352,-187500.022352,-187500.022352
1680234184.280038,2,-88814.656593,-76009.610416,-187500.022352,-187500.022352,187500.0,187500.0,-187500.022352,187500.0,-62911.845793,-53629.345134,-187500.022352,-98538.335984,-177978.760359,-187500.022352,-187500.022352,-187500.022352
1680234184.280058,2,-88903.437722,-76232.09968,-187500.022352,-187500.022352,187500.0,187500.0,-187500.022352,187500.0,-63043.78814,-51730.005649,-187500.022352,-97667.601427,-176775.275382,-187500.022352,-187500.022352,-187500.022352
1680234184.280078,2,-88749.858886,-76052.525765,-187500.022352,-187500.022352,187500.0,187500.0,-187500.022352,187500.0,-63017.033102,-53771.122249,-187500.022352,-98734.137265,-177683.471463,-187500.022352,-187500.022352,-187500.022352
1680234184.280097,2,-88909.495045,-76114.305987,-187500.022352,-187500.022352,187500.0,187500.0,-187500.022352,187500.0,-62922.485223,-52431.559853,-187500.022352,-97890.20245,-177380.873547,-187500.022352,-187500.022352,-187500.022352
1680234184.280117,2,-88802.251375,-76192.872368,-187500.022352,-187500.022352,187500.0,187500.0,-187500.022352,187500.0,-63096.538257,-52544.234996,-187500.022352,-98181.177459,-176883.971916,-187500.022352,-187500.022352,-187500.022352
1680234184.384408,2,-88803.368962,-75993.628918,-187500.022352,-187500.022352,187500.0,187500.0,-187500.022352,187500.0,-62894.232618,-53705.117548,-187500.022352,-98549.82478,-177936.984949,-187500.022352,-187500.022352,-187500.022352
1680234184.384448,2,-88907.63985,-76239.140479,-187500.022352,-187500.022352,187500.0,187500.0,-187500.022352,187500.0,-63020.899954,-51619.856253,-187500.022352,-97611.945583,-176683.11914,-187500.022352,-187500.022352,-187500.022352
1680234184.384481,2,-88715.459551,-76025.547209,-187500.022352,-187500.022352,187500.0,187500.0,-187500.022352,187500.0,-62989.093422,-53921.661248,-187500.022352,-98810.423769,-177672.317943,-187500.022352,-187500.022352,-187500.022352
1680234184.384504,2,-88920.983842,-76076.263318,-187500.022352,-187500.022352,187500.0,187500.0,-187500.022352,187500.0,-62879.748688,-52334.240357,-187500.022352,-97808.953858,-177381.477044,-187500.022352,-187500.022352,-187500.022352
1680234184.384586,2,-88788.616811,-76223.203686,-187500.022352,-187500.022352,187500.0,187500.0,-187500.022352,187500.0,-63101.947379,-52372.819468,-187500.022352,-98137.88213,-176735.377519,-187500.022352,-187500.022352,-187500.022352
1680234184.384609,2,-88794.584727,-75917.051842,-187500.022352,-187500.022352,187500.0,187500.0,-187500.022352,187500.0,-62851.227862,-54218.738284,-187500.022352,-98768.044861,-178094.542395,-187500.022352,-187500.022352,-187500.022352
1680234184.384632,2,-88951.270455,-76291.197692,-187500.022352,-187500.022352,187500.0,187500.0,-187500.022352,187500.0,-63030.310038,-50876.481936,-187500.022352,-97244.594663,-176436.780564,-187500.022352,-187500.022352,-187500.022352
1680234184.384654,2,-88686.402283,-76010.213913,-187500.022352,-187500.022352,187500.0,187500.0,-187500.022352,187500.0,-62990.725099,-54376.452193,-187500.022352,-99091.608714,-177624.842837,-187500.022352,-187500.022352,-187500.022352
1680234184.384677,2,-88952.544505,-76040.813451,-187500.022352,-187500.022352,187500.0,187500.0,-187500.022352,187500.0,-62856.32406,-52289.514517,-187500.022352,-97745.385497,-177356.867773,-187500.022352,-187500.022352,-187500.022352
1680234184.384698,2,-88792.841291,-76339.365702,-187500.022352,-187500.022352,187500.0,187500.0,-187500.022352,187500.0,-63147.56729,-51810.650743,-187500.022352,-97924.80295,-176344.356101,-187500.022352,-187500.022352,-187500.022352
1680234184.384721,2,-88692.303144,-75767.675134,-187500.022352,-187500.022352,187500.0,187500.0,-187500.022352,187500.0,-62789.31353,-56003.078044,-187500.022352,-99592.712473,-178548.282808,-187500.022352,-187500.022352,-187500.022352
1680234184.384744,2,-89112.784161,-76333.375434,-187500.022352,-187500.022352,187500.0,187500.0,-187500.022352,187500.0,-63006.617189,-48853.693766,-187500.022352,-96127.588585,-176038.919513,-187500.022352,-187500.022352,-187500.022352
1680234184.762982,2,-88539.39486,-76126.957074,-187500.022352,-187500.022352,187500.0,187500.0,-187500.022352,187500.0,-63101.947379,-54821.944812,-187500.022352,-99582.274208,-177116.608872,-187500.022352,-187500.022352,-187500.022352
1680234184.763047,2,-88962.178107,-75743.423491,-187500.022352,-187500.022352,187500.0,187500.0,-187500.022352,187500.0,-62653.88431,-53804.873384,-187500.022352,-98207.038427,-177994.071304,-187500.022352,-187500.022352,-187500.022352
1680234184.76312,2,-88856.096727,-76562.54787,-187500.022352,-187500.022352,187500.0,187500.0,-187500.022352,187500.0,-63296.943998,-48924.012354,-187500.022352,-96640.248196,-175186.133407,-187500.022352,-187500.022352,-187500.022352
1680234184.763145,2,-88592.703771,-75639.37612,-187500.022352,-187500.022352,187500.0,187500.0,-187500.022352,187500.0,-62730.796663,-57661.801,-187500.022352,-100491.386711,-178541.689043,-187500.022352,-187500.022352,-187500.022352
1680234184.763167,2,-89185.29322,-76369.540557,-187500.022352,-187500.022352,187500.0,187500.0,-187500.022352,187500.0,-62977.15759,-48096.841347,-187500.022352,-95643.807428,-175670.987448,-187500.022352,-187500.022352,-187500.022352
1680234184.76319,2,-88484.566031,-76161.915202,-187500.022352,-187500.022352,187500.0,187500.0,-187500.022352,187500.0,-63149.534243,-55359.705431,-187500.022352,-99931.207291,-176841.548305,-187500.022352,-187500.022352,-187500.022352
1680234184.763212,2,-88986.809729,-75623.707548,-187500.022352,-187500.022352,187500.0,187500.0,-187500.022352,187500.0,-62572.367498,-54179.578028,-187500.022352,-98254.781753,-178079.745541,-187500.022352,-187500.022352,-187500.022352
1680234184.763234,2,-88855.157954,-76726.497916,-187500.022352,-187500.022352,187500.0,187500.0,-187500.022352,187500.0,-63360.78058,-47876.274333,-187500.022352,-96220.303621,-174553.221411,-187500.022352,-187500.022352,-187500.022352
1680234184.763257,2,-88526.743773,-75418.160906,-187500.022352,-187500.022352,187500.0,187500.0,-187500.022352,187500.0,-62668.927034,-59335.119645,-187500.022352,-101244.729906,-178851.797146,-187500.022352,-187500.022352,-187500.022352
1680234184.763279,2,-89325.259843,-76483.802674,-187500.022352,-187500.022352,187500.0,187500.0,-187500.022352,187500.0,-62995.106041,-45119.097247,-187500.022352,-94187.278353,-174683.152101,-187212.333049,-187500.022352,-187500.022352
1680234184.763301,2,-88369.253381,-76162.65281,-187500.022352,-187500.022352,187500.0,187500.0,-187500.022352,187500.0,-63199.602151,-55835.30585,-187500.022352,-100434.300355,-176108.992232,-187500.022352,-187500.022352,-187500.022352
1680234184.763327,2,-89030.395631,-75452.224964,-187500.022352,-187500.022352,187500.0,187500.0,-187500.022352,187500.0,-62458.887691,-54111.114634,-187500.022352,-98098.744225,-177690.042876,-187500.022352,-187500.022352,-187500.022352
1680234184.763349,2,-88829.922835,-76913.827886,-187500.022352,-187500.022352,187500.0,187500.0,-187500.022352,187500.0,-63481.85998,-46440.599434,-187500.022352,-95692.377769,-173196.515226,-186920.173397,-187500.022352,-187500.022352
1680234184.763412,2,-88420.818856,-75271.689924,-187500.022352,-187500.022352,187500.0,187500.0,-187500.022352,187500.0,-62571.898111,-61116.844251,-187500.022352,-102026.817444,-178669.496318,-187500.022352,-187500.022352,-187500.022352
1680234184.763434,2,-89291.352247,-76504.433334,-187500.022352,-187500.022352,187500.0,187500.0,-187500.022352,187500.0,-62954.135293,-44929.75562,-187500.022352,-93959.670539,-174236.385433,-187019.102218,-187500.022352,-187500.022352
