Timestamp,Label,EXG Channel 0 (Fp1),EXG Channel 1 (Fp2),EXG Channel 2 (C3),EXG Channel 3 (C4),EXG Channel 4 (P7),EXG Channel 5 (P8),EXG Channel 6 (O1),EXG Channel 7 (O2),EXG Channel 8 (F7),EXG Channel 9 (F8),EXG Channel 10 (F3),EXG Channel 11 (F4),EXG Channel 12 (T7),EXG Channel 13 (T8),EXG Channel 14 (P3),EXG Channel 15 (P4)
1680230631.046498,0,187500.0,-187500.022352,-83232.643692,-87159.196992,-187500.022352,-79440.133803,187500.0,-187500.022352,-187500.022352,-25435.659341,187500.0,187500.0,-87711.352135,-84031.405631,187500.0,187500.0
1680230631.046525,0,187500.0,-187500.022352,-83237.806945,-87096.679163,-187500.022352,-79519.348385,187500.0,-187500.022352,-187500.022352,-25997.939825,187500.0,187500.0,-87305.667973,-83633.589284,187500.0,187500.0
1680230631.046543,0,187500.0,-187500.022352,-83461.59261,-87025.801781,-187500.022352,-79705.314899,187500.0,-187500.022352,-187500.022352,-25349.02398,187500.0,187500.0,-87749.059528,-84088.424932,187500.0,187500.0
1680230631.046564,0,187500.0,-187500.022352,-83089.12314,-87247.19581,-187500.022352,-79304.79399,187500.0,-187500.022352,-187500.022352,-25424.416414,187500.0,187500.0,-87448.763841,-83766.895088,187500.0,187500.0
1680230631.046584,0,187500.0,-187500.022352,-83495.902538,-86994.956374,-187500.022352,-79786.787008,187500.0,-187500.022352,-187500.022352,-25651.934821,187500.0,187500.0,-87508.442999,-83855.184478,187500.0,187500.0
1680230631.046602,0,187500.0,-187500.022352,-83249.228686,-87207.566167,-187500.022352,-79478.645859,187500.0,-187500.022352,-187500.022352,-25007.936359,187500.0,187500.0,-87698.410475,-84041.486268,187500.0,187500.0
1680230631.046619,0,187500.0,-187500.022352,-83281.683419,-87149.094003,-187500.022352,-79593.757343,187500.0,-187500.022352,-187500.022352,-25625.805631,187500.0,187500.0,-87324.577549,-83690.228604,187500.0,187500.0
1680230631.046636,0,187500.0,-187500.022352,-83479.988096,-87076.652,-187500.022352,-79765.016409,187500.0,-187500.022352,-187500.022352,-25101.590169,187500.0,187500.0,-87748.858362,-84130.133287,187500.0,187500.0
1680230631.046653,0,187500.0,-187500.022352,-83130.719737,-87280.075226,-187500.022352,-79389.395343,187500.0,-187500.022352,-187500.022352,-25196.696841,187500.0,187500.0,-87447.109812,-83800.132132,187500.0,187500.0
1680230631.046671,0,187500.0,-187500.022352,-83487.922965,-87035.793011,-187500.022352,-79812.849142,187500.0,-187500.022352,-187500.022352,-25455.664153,187500.0,187500.0,-87532.426421,-83917.389383,187500.0,187500.0
1680230631.046688,0,187500.0,-187500.022352,-83254.906029,-87217.423286,-187500.022352,-79478.578803,187500.0,-187500.022352,-187500.022352,-24870.942518,187500.0,187500.0,-87675.097606,-84046.537762,187500.0,187500.0
1680230631.046848,0,187500.0,-187500.022352,-83255.330712,-87146.970588,-187500.022352,-79524.556342,187500.0,-187500.022352,-187500.022352,-25472.271499,187500.0,187500.0,-87322.945872,-83685.624145,187500.0,187500.0
1680230631.046873,0,187500.0,-187500.022352,-83442.459517,-87052.869743,-187500.022352,-79689.288698,187500.0,-187500.022352,-187500.022352,-24968.016144,187500.0,187500.0,-87718.772914,-84082.971106,187500.0,187500.0
1680230631.046894,0,187500.0,-187500.022352,-83090.419542,-87247.396975,-187500.022352,-79325.491706,187500.0,-187500.022352,-187500.022352,-25070.767113,187500.0,187500.0,-87406.85432,-83752.075881,187500.0,187500.0
1680230631.046918,0,187500.0,-187500.022352,-83455.512936,-86994.509339,-187500.022352,-79768.659743,187500.0,-187500.022352,-187500.022352,-25338.608067,187500.0,187500.0,-87499.99404,-83877.200946,187500.0,187500.0
1680230631.046937,0,187500.0,-187500.022352,-83238.119869,-87178.821823,-187500.022352,-79442.726605,187500.0,-187500.022352,-187500.022352,-24723.331597,187500.0,187500.0,-87670.560201,-84027.605835,187500.0,187500.0
1680230631.046958,0,187500.0,-187500.022352,-83237.583427,-87122.450724,-187500.022352,-79511.055888,187500.0,-187500.022352,-187500.022352,-25391.246425,187500.0,187500.0,-87297.487235,-83639.065461,187500.0,187500.0
1680230631.046976,0,187500.0,-187500.022352,-83472.254392,-87029.646281,-187500.022352,-79733.880429,187500.0,-187500.022352,-187500.022352,-24855.341,187500.0,187500.0,-87745.058566,-84101.813627,187500.0,187500.0
1680230631.046993,0,187500.0,-187500.022352,-83075.913259,-87255.376548,-187500.022352,-79315.344014,187500.0,-187500.022352,-187500.022352,-24933.572106,187500.0,187500.0,-87429.563693,-83780.663762,187500.0,187500.0
1680230631.047011,0,187500.0,-187500.022352,-83428.579084,-86996.856272,-187500.022352,-79742.754071,187500.0,-187500.022352,-187500.022352,-25263.327392,187500.0,187500.0,-87474.043664,-83837.459545,187500.0,187500.0
1680230631.047028,0,187500.0,-187500.022352,-83214.404668,-87177.145443,-187500.022352,-79455.020065,187500.0,-187500.022352,-187500.022352,-24618.703081,187500.0,187500.0,-87648.677844,-84015.044155,187500.0,187500.0
1680230631.047045,0,187500.0,-187500.022352,-83235.817639,-87129.647986,-187500.022352,-79556.653447,187500.0,-187500.022352,-187500.022352,-25273.989174,187500.0,187500.0,-87300.258851,-83667.742749,187500.0,187500.0
1680230631.047121,0,187500.0,-187500.022352,-83419.794848,-87027.634624,-187500.022352,-79728.337196,187500.0,-187500.022352,-187500.022352,-24748.365551,187500.0,187500.0,-87710.793341,-84082.300554,187500.0,187500.0
1680230631.047139,0,187500.0,-187500.022352,-83063.6198,-87243.440717,-187500.022352,-79346.770566,187500.0,-187500.022352,-187500.022352,-24798.522866,187500.0,187500.0,-87425.115696,-83782.183681,187500.0,187500.0
1680230631.047158,0,187500.0,-187500.022352,-83442.280703,-86995.559871,-187500.022352,-79816.894807,187500.0,-187500.022352,-187500.022352,-25136.771814,187500.0,187500.0,-87467.382844,-83846.042615,187500.0,187500.0
1680230631.047175,0,187500.0,-187500.022352,-83206.581558,-87173.636219,-187500.022352,-79463.021989,187500.0,-187500.022352,-187500.022352,-24483.720897,187500.0,187500.0,-87667.095681,-84043.386166,187500.0,187500.0
1680230631.047193,0,187500.0,-187500.022352,-83194.355153,-87122.003689,-187500.022352,-79493.442713,187500.0,-187500.022352,-187500.022352,-25157.536585,187500.0,187500.0,-87263.423176,-83615.774943,187500.0,187500.0
1680230631.04721,0,187500.0,-187500.022352,-83441.09606,-87014.268281,-187500.022352,-79755.785138,187500.0,-187500.022352,-187500.022352,-24677.421114,187500.0,187500.0,-87706.144179,-84078.880737,187500.0,187500.0
1680230631.047227,0,187500.0,-187500.022352,-83081.367085,-87240.043252,-187500.022352,-79353.297276,187500.0,-187500.022352,-187500.022352,-24691.21214,187500.0,187500.0,-87442.706518,-83822.841504,187500.0,187500.0
1680230631.047245,0,187500.0,-187500.022352,-83423.28172,-86994.934022,-187500.022352,-79761.663647,187500.0,-187500.022352,-187500.022352,-25048.705941,187500.0,187500.0,-87456.743414,-83844.254475,187500.0,187500.0
1680230631.047262,0,187500.0,-187500.022352,-83219.634976,-87163.354416,-187500.022352,-79474.17551,187500.0,-187500.022352,-187500.022352,-24412.664701,187500.0,187500.0,-87686.094664,-84052.975065,187500.0,187500.0
1680230631.047279,0,187500.0,-187500.022352,-83168.717702,-87132.061974,-187500.022352,-79480.299888,187500.0,-187500.022352,-187500.022352,-25035.183136,187500.0,187500.0,-87250.816792,-83628.224865,187500.0,187500.0
1680230631.047322,0,187500.0,-187500.022352,-83438.994996,-87024.259511,-187500.022352,-79739.736586,187500.0,-187500.022352,-187500.022352,-24628.984884,187500.0,187500.0,-87691.861414,-84089.721333,187500.0,187500.0
1680230631.04734,0,187500.0,-187500.022352,-83062.770434,-87240.378528,-187500.022352,-79334.790031,187500.0,-187500.022352,-187500.022352,-24622.838154,187500.0,187500.0,-87417.806675,-83801.182664,187500.0,187500.0
1680230631.04736,0,187500.0,-187500.022352,-83403.075743,-87011.094333,-187500.022352,-79760.233135,187500.0,-187500.022352,-187500.022352,-24971.972403,187500.0,187500.0,-87427.015594,-83838.465373,187500.0,187500.0
1680230631.047379,0,187500.0,-187500.022352,-83206.402744,-87164.472004,-187500.022352,-79476.947126,187500.0,-187500.022352,-187500.022352,-24408.954311,187500.0,187500.0,-87631.198779,-84032.456163,187500.0,187500.0
1680230631.047398,0,187500.0,-187500.022352,-83189.750694,-87134.274797,-187500.022352,-79515.101554,187500.0,-187500.022352,-187500.022352,-24976.666269,187500.0,187500.0,-87255.309493,-83641.278284,187500.0,187500.0
1680230631.047415,0,187500.0,-187500.022352,-83448.203915,-87034.49661,-187500.022352,-79755.248696,187500.0,-187500.022352,-187500.022352,-24587.410639,187500.0,187500.0,-87710.122789,-84111.022545,187500.0,187500.0
1680230631.047433,0,187500.0,-187500.022352,-83018.424573,-87237.651615,-187500.022352,-79295.69683,187500.0,-187500.022352,-187500.022352,-24583.163808,187500.0,187500.0,-87381.708608,-83763.20705,187500.0,187500.0
1680230631.04745,0,187500.0,-187500.022352,-83430.769554,-87012.927176,-187500.022352,-79777.667496,187500.0,-187500.022352,-187500.022352,-24920.630446,187500.0,187500.0,-87417.113771,-83826.551894,187500.0,187500.0
1680230631.047467,0,187500.0,-187500.022352,-83228.463915,-87175.983152,-187500.022352,-79481.708048,187500.0,-187500.022352,-187500.022352,-24402.002919,187500.0,187500.0,-87672.504803,-84067.25783,187500.0,187500.0
1680230631.047484,0,187500.0,-187500.022352,-83191.024743,-87147.998768,-187500.022352,-79506.160856,187500.0,-187500.022352,-187500.022352,-24875.859901,187500.0,187500.0,-87262.842031,-83647.402662,187500.0,187500.0
1680230631.047502,0,187500.0,-187500.022352,-83474.668381,-87052.847392,-187500.022352,-79776.684019,187500.0,-187500.022352,-187500.022352,-24570.646831,187500.0,187500.0,-87710.949804,-84121.103182,187500.0,187500.0
1680230631.047568,0,187500.0,-187500.022352,-83078.617821,-87252.046138,-187500.022352,-79335.304121,187500.0,-187500.022352,-187500.022352,-24532.96179,187500.0,187500.0,-87445.299321,-83821.925082,187500.0,187500.0
1680230631.047586,0,187500.0,-187500.022352,-83453.925962,-87036.68708,-187500.022352,-79792.889034,187500.0,-187500.022352,-187500.022352,-24848.099035,187500.0,187500.0,-87446.729832,-83848.367196,187500.0,187500.0
1680230631.047603,0,187500.0,-187500.022352,-83261.365683,-87182.196937,-187500.022352,-79526.679757,187500.0,-187500.022352,-187500.022352,-24355.75716,187500.0,187500.0,-87703.976059,-84085.183929,187500.0,187500.0
1680230631.04762,0,187500.0,-187500.022352,-83198.311412,-87156.313617,-187500.022352,-79526.880923,187500.0,-187500.022352,-187500.022352,-24802.613235,187500.0,187500.0,-87292.882775,-83667.027493,187500.0,187500.0
1680230631.047637,0,187500.0,-187500.022352,-83476.098892,-87056.423671,-187500.022352,-79794.565415,187500.0,-187500.022352,-187500.022352,-24521.987083,187500.0,187500.0,-87718.281176,-84127.316967,187500.0,187500.0
1680230631.047657,0,187500.0,-187500.022352,-83069.118329,-87255.667121,-187500.022352,-79339.863877,187500.0,-187500.022352,-187500.022352,-24479.9211,187500.0,187500.0,-87438.705556,-83828.854123,187500.0,187500.0
1680230631.047674,0,187500.0,-187500.022352,-83423.415831,-87037.938778,-187500.022352,-79758.310885,187500.0,-187500.022352,-187500.022352,-24818.95236,187500.0,187500.0,-87412.554015,-83828.161219,187500.0,187500.0
1680230631.047691,0,187500.0,-187500.022352,-83267.199489,-87172.317466,-187500.022352,-79503.143371,187500.0,-187500.022352,-187500.022352,-24328.443328,187500.0,187500.0,-87704.333687,-84091.263603,187500.0,187500.0
1680230631.047708,0,187500.0,-187500.022352,-83178.530118,-87154.279608,-187500.022352,-79458.328123,187500.0,-187500.022352,-187500.022352,-24761.173101,187500.0,187500.0,-87272.609743,-83651.425976,187500.0,187500.0
1680230631.047725,0,187500.0,-187500.022352,-83460.117395,-87044.10786,-187500.022352,-79748.185545,187500.0,-187500.022352,-187500.022352,-24499.098897,187500.0,187500.0,-87693.426036,-84098.237347,187500.0,187500.0
1680230631.047764,0,187500.0,-187500.022352,-83089.167844,-87256.516487,-187500.022352,-79338.433366,187500.0,-187500.022352,-187500.022352,-24421.024253,187500.0,187500.0,-87473.641333,-83853.195173,187500.0,187500.0
1680230631.047787,0,187500.0,-187500.022352,-83411.725868,-87045.225447,-187500.022352,-79741.59178,187500.0,-187500.022352,-187500.022352,-24768.817397,187500.0,187500.0,-87416.33146,-83807.687021,187500.0,187500.0
1680230631.04781,0,187500.0,-187500.022352,-83256.515355,-87178.307733,-187500.022352,-79511.391164,187500.0,-187500.022352,-187500.022352,-24293.328737,187500.0,187500.0,-87683.61362,-84084.982763,187500.0,187500.0
1680230631.047827,0,187500.0,-187500.022352,-83165.342589,-87174.329123,-187500.022352,-79473.057922,187500.0,-187500.022352,-187500.022352,-24718.36951,187500.0,187500.0,-87273.660275,-83658.466775,187500.0,187500.0
1680230631.047844,0,187500.0,-187500.022352,-83442.168944,-87055.12727,-187500.022352,-79738.015501,187500.0,-187500.022352,-187500.022352,-24497.198999,187500.0,187500.0,-87653.997559,-84070.20826,187500.0,187500.0
1680230631.047862,0,187500.0,-187500.022352,-83070.973524,-87259.913952,-187500.022352,-79318.517961,187500.0,-187500.022352,-187500.022352,-24417.693844,187500.0,187500.0,-87455.983455,-83850.222391,187500.0,187500.0
1680230631.047879,0,187500.0,-187500.022352,-83410.429467,-87045.873647,-187500.022352,-79751.046568,187500.0,-187500.022352,-187500.022352,-24776.081714,187500.0,187500.0,-87387.363599,-83809.162236,187500.0,187500.0
1680230631.047896,0,187500.0,-187500.022352,-83300.816512,-87180.609963,-187500.022352,-79558.530993,187500.0,-187500.022352,-187500.022352,-24289.059554,187500.0,187500.0,-87706.144179,-84136.414127,187500.0,187500.0
1680230631.047921,0,187500.0,-187500.022352,-83152.937371,-87192.009353,-187500.022352,-79450.86264,187500.0,-187500.022352,-187500.022352,-24705.919588,187500.0,187500.0,-87268.34056,-83678.493938,187500.0,187500.0
1680230631.612293,0,93749.988824,-93750.011176,-39300.848758,-49587.657999,-44708.22748,-40198.561871,93749.988824,-93750.011176,-93750.011176,-12157.516141,93749.988824,93749.988824,-43904.883433,-42119.716659,93749.988824,93749.988824
1680230631.612353,0,187500.0,-187500.022352,-78677.46993,-99087.630104,-89133.481876,-80693.016135,187500.0,-187500.022352,-187500.022352,-187500.022352,187500.0,187500.0,-85119.041517,-84698.04641,187500.0,187500.0
1680230631.612453,0,187500.0,-187500.022352,-78801.723278,-99273.842487,-88700.550938,-80686.221205,187500.0,-187500.022352,-187500.022352,-187500.022352,187500.0,187500.0,-85500.339925,-85019.643309,187500.0,187500.0
1680230631.612473,0,187500.0,-187500.022352,-78592.555653,-99148.918587,-89341.129582,-80409.417201,187500.0,-187500.022352,-187500.022352,-187500.022352,187500.0,187500.0,-85175.300857,-84709.982241,187500.0,187500.0
1680230631.612493,0,187500.0,-187500.022352,-78826.109031,-99239.711373,-88646.616178,-80819.147029,187500.0,-187500.022352,-187500.022352,-187500.022352,187500.0,187500.0,-85334.691147,-84888.393866,187500.0,187500.0
1680230631.612514,0,187500.0,-187500.022352,-78716.607835,-99307.615972,-88991.570651,-80494.264423,187500.0,-187500.022352,-187500.022352,-187500.022352,187500.0,187500.0,-85426.60152,-84982.829986,187500.0,187500.0
1680230631.612534,0,187500.0,-187500.022352,-78721.234646,-99206.943715,-88974.113938,-80703.789676,187500.0,-187500.022352,-187500.022352,-187500.022352,187500.0,187500.0,-85162.470956,-84724.287358,187500.0,187500.0
1680230631.612553,0,187500.0,-187500.022352,-78839.922409,-99350.263101,-88498.625278,-80763.155909,187500.0,-187500.022352,-187500.022352,-187500.022352,187500.0,187500.0,-85514.712097,-85099.528444,187500.0,187500.0
1680230631.612572,0,187500.0,-187500.022352,-78585.648964,-99198.025369,-89134.465353,-80482.887385,187500.0,-187500.022352,-187500.022352,-187500.022352,187500.0,187500.0,-85197.362029,-84760.541887,187500.0,187500.0
1680230631.612592,0,187500.0,-187500.022352,-78843.498688,-99282.626722,-88435.660414,-80898.339259,187500.0,-187500.022352,-187500.022352,-187500.022352,187500.0,187500.0,-85323.895255,-84888.773845,187500.0,187500.0
1680230631.612612,0,187500.0,-187500.022352,-78754.784614,-99367.228075,-88746.796697,-80573.233136,187500.0,-187500.022352,-187500.022352,-187500.022352,187500.0,187500.0,-85423.226407,-84969.55305,187500.0,187500.0
1680230631.612631,0,187500.0,-187500.022352,-78709.567035,-99221.315887,-88734.972624,-80751.287133,187500.0,-187500.022352,-187500.022352,-187500.022352,187500.0,187500.0,-85164.527317,-84723.728564,187500.0,187500.0
1680230631.612651,0,187500.0,-187500.022352,-78855.211002,-99396.195936,-88253.158421,-80780.009124,187500.0,-187500.022352,-187500.022352,-187500.022352,187500.0,187500.0,-85481.787977,-85019.464495,187500.0,187500.0
1680230631.612696,0,187500.0,-187500.022352,-78605.117334,-99267.963978,-88864.813908,-80477.165339,187500.0,-187500.022352,-187500.022352,-187500.022352,187500.0,187500.0,-85194.880986,-84729.405907,187500.0,187500.0
1680230631.612716,0,187500.0,-187500.022352,-78819.425859,-99324.893871,-88175.553164,-80878.49091,187500.0,-187500.022352,-187500.022352,-187500.022352,187500.0,187500.0,-85298.101341,-84838.504772,187500.0,187500.0
1680230631.612736,0,187500.0,-187500.022352,-78730.309454,-99423.912099,-88461.610789,-80558.101005,187500.0,-187500.022352,-187500.022352,-187500.022352,187500.0,187500.0,-85415.291538,-84955.85143,187500.0,187500.0
1680230631.612755,0,187500.0,-187500.022352,-78698.972309,-99300.642228,-88456.671054,-80728.108374,187500.0,-187500.022352,-187500.022352,-187500.022352,187500.0,187500.0,-85147.897619,-84680.075607,187500.0,187500.0
1680230631.612774,0,187500.0,-187500.022352,-78854.182822,-99456.34448,-87936.858885,-80747.442633,187500.0,-187500.022352,-187500.022352,-187500.022352,187500.0,187500.0,-85465.895887,-85038.821106,187500.0,187500.0
1680230631.612796,0,187500.0,-187500.022352,-78616.136744,-99322.904566,-88562.975951,-80426.31512,187500.0,-187500.022352,-187500.022352,-187500.022352,187500.0,187500.0,-85199.396038,-84752.785832,187500.0,187500.0
1680230631.612817,0,187500.0,-187500.022352,-78807.780601,-99338.707249,-87889.719056,-80790.447389,187500.0,-187500.022352,-187500.022352,-187500.022352,187500.0,187500.0,-85302.459932,-84850.641769,187500.0,187500.0
1680230631.612836,0,187500.0,-187500.022352,-78722.30753,-99397.358226,-88162.991484,-80522.941711,187500.0,-187500.022352,-187500.022352,-187500.022352,187500.0,187500.0,-85406.149674,-84932.717375,187500.0,187500.0
1680230631.612856,0,187500.0,-187500.022352,-78661.287267,-99219.125416,-88215.942766,-80705.600167,187500.0,-187500.022352,-187500.022352,-187500.022352,187500.0,187500.0,-85120.315566,-84656.02513,187500.0,187500.0
1680230631.612875,0,187500.0,-187500.022352,-78865.515156,-99409.092892,-87703.618432,-80821.873942,187500.0,-187500.022352,-187500.022352,-187500.022352,187500.0,187500.0,-85447.209829,-85034.373109,187500.0,187500.0
1680230631.612981,0,187500.0,-187500.022352,-78599.797618,-99270.489725,-88364.045425,-80518.113734,187500.0,-187500.022352,-187500.022352,-187500.022352,187500.0,187500.0,-85204.894567,-84728.310672,187500.0,187500.0
1680230631.613002,0,187500.0,-187500.022352,-78826.86899,-99310.499348,-87708.155836,-80953.078682,187500.0,-187500.022352,-187500.022352,-187500.022352,187500.0,187500.0,-85305.946804,-84804.217196,187500.0,187500.0
1680230631.613022,0,187500.0,-187500.022352,-78746.983856,-99419.151177,-87961.579914,-80669.904431,187500.0,-187500.022352,-187500.022352,-187500.022352,187500.0,187500.0,-85453.043634,-84966.133233,187500.0,187500.0
1680230631.613041,0,187500.0,-187500.022352,-78678.319297,-99281.687949,-88037.307624,-80780.098531,187500.0,-187500.022352,-187500.022352,-187500.022352,187500.0,187500.0,-85149.506944,-84640.714185,187500.0,187500.0
1680230631.613061,0,187500.0,-187500.022352,-78862.832947,-99462.334748,-87519.082429,-80889.733838,187500.0,-187500.022352,-187500.022352,-187500.022352,187500.0,187500.0,-85486.973582,-84997.470379,187500.0,187500.0
1680230631.613081,0,187500.0,-187500.022352,-78626.954988,-99377.398119,-88168.780585,-80548.512107,187500.0,-187500.022352,-187500.022352,-187500.022352,187500.0,187500.0,-85228.229788,-84721.448686,187500.0,187500.0
1680230631.613101,0,187500.0,-187500.022352,-78835.653226,-99419.128826,-87501.245737,-80942.416899,187500.0,-187500.022352,-187500.022352,-187500.022352,187500.0,187500.0,-85308.941938,-84804.641879,187500.0,187500.0
1680230631.61312,0,187500.0,-187500.022352,-78731.069414,-99511.262716,-87755.563886,-80586.040686,187500.0,-187500.022352,-187500.022352,-187500.022352,187500.0,187500.0,-85423.740497,-84914.344241,187500.0,187500.0
1680230631.613139,0,187500.0,-187500.022352,-78648.099738,-99364.657624,-87845.619064,-80689.126931,187500.0,-187500.022352,-187500.022352,-187500.022352,187500.0,187500.0,-85095.683944,-84595.496606,187500.0,187500.0
1680230631.613159,0,187500.0,-187500.022352,-78869.873747,-99539.582376,-87283.338581,-80845.745605,187500.0,-187500.022352,-187500.022352,-187500.022352,187500.0,187500.0,-85485.163091,-84968.882497,187500.0,187500.0
1680230631.613178,0,187500.0,-187500.022352,-78629.704252,-99470.336672,-87912.227263,-80533.379976,187500.0,-187500.022352,-187500.022352,-187500.022352,187500.0,187500.0,-85228.162733,-84730.255274,187500.0,187500.0
1680230631.61323,0,187500.0,-187500.022352,-78832.479278,-99471.186038,-87262.350292,-80935.733728,187500.0,-187500.022352,-187500.022352,-187500.022352,187500.0,187500.0,-85285.606716,-84778.222117,187500.0,187500.0
1680230631.61325,0,187500.0,-187500.022352,-78751.342446,-99592.488956,-87495.031952,-80640.400128,187500.0,-187500.022352,-187500.022352,-187500.022352,187500.0,187500.0,-85430.826,-84918.479314,187500.0,187500.0
1680230631.613269,0,187500.0,-187500.022352,-78683.10257,-99404.175509,-87607.528282,-80789.016877,187500.0,-187500.022352,-187500.022352,-187500.022352,187500.0,187500.0,-85120.337918,-84625.470296,187500.0,187500.0
1680230631.613288,0,187500.0,-187500.022352,-78890.504407,-99606.659962,-87045.985406,-80876.81453,187500.0,-187500.022352,-187500.022352,-187500.022352,187500.0,187500.0,-85492.96385,-85016.938748,187500.0,187500.0
1680230631.613308,0,187500.0,-187500.022352,-78630.933598,-99482.808946,-87694.49892,-80498.287737,187500.0,-187500.022352,-187500.022352,-187500.022352,187500.0,187500.0,-85227.156905,-84691.609107,187500.0,187500.0
1680230631.613328,0,187500.0,-187500.022352,-78804.852522,-99477.35512,-87093.214642,-80885.710524,187500.0,-187500.022352,-187500.022352,-187500.022352,187500.0,187500.0,-85260.729225,-84748.986035,187500.0,187500.0
1680230631.613348,0,187500.0,-187500.022352,-78753.711731,-99585.939894,-87293.910956,-80628.777221,187500.0,-187500.022352,-187500.022352,-187500.022352,187500.0,187500.0,-85425.014547,-84909.806837,187500.0,187500.0
1680230631.613367,0,187500.0,-187500.022352,-78654.648799,-99426.035515,-87455.849344,-80703.990841,187500.0,-187500.022352,-187500.022352,-187500.022352,187500.0,187500.0,-85111.576034,-84608.415915,187500.0,187500.0
1680230631.613387,0,187500.0,-187500.022352,-78853.311104,-99568.214961,-86914.758314,-80864.029332,187500.0,-187500.022352,-187500.022352,-187500.022352,187500.0,187500.0,-85441.443079,-84929.789296,187500.0,187500.0
1680230631.613406,0,187500.0,-187500.022352,-78652.458328,-99501.673818,-87548.832601,-80563.174851,187500.0,-187500.022352,-187500.022352,-187500.022352,187500.0,187500.0,-85256.527097,-84755.870373,187500.0,187500.0
1680230631.613426,0,187500.0,-187500.022352,-78812.429763,-99501.4503,-86943.234437,-80935.957245,187500.0,-187500.022352,-187500.022352,-187500.022352,187500.0,187500.0,-85266.339513,-84772.008332,187500.0,187500.0
1680230631.613469,0,187500.0,-187500.022352,-78737.037329,-99580.486069,-87153.050262,-80637.539105,187500.0,-187500.022352,-187500.022352,-187500.022352,187500.0,187500.0,-85413.548102,-84908.353973,187500.0,187500.0
1680230631.613488,0,187500.0,-187500.022352,-78628.474907,-99426.862529,-87349.611503,-80715.569045,187500.0,-187500.022352,-187500.022352,-187500.022352,187500.0,187500.0,-85078.897784,-84585.483025,187500.0,187500.0
1680230631.613508,0,187500.0,-187500.022352,-78832.322816,-99600.289714,-86807.514645,-80867.695018,187500.0,-187500.022352,-187500.022352,-187500.022352,187500.0,187500.0,-85443.655901,-84948.877686,187500.0,187500.0
1680230631.613527,0,187500.0,-187500.022352,-78601.585758,-99517.20828,-87478.111682,-80492.096304,187500.0,-187500.022352,-187500.022352,-187500.022352,187500.0,187500.0,-85203.821683,-84716.777172,187500.0,187500.0
1680230631.613547,0,187500.0,-187500.022352,-78787.373458,-99523.444417,-86900.252032,-80823.840895,187500.0,-187500.022352,-187500.022352,-187500.022352,187500.0,187500.0,-85259.097547,-84773.058864,187500.0,187500.0
1680230631.613569,0,187500.0,-187500.022352,-78720.452335,-99606.168223,-87106.290413,-80526.965025,187500.0,-187500.022352,-187500.022352,-187500.022352,187500.0,187500.0,-85394.884395,-84911.751439,187500.0,187500.0
1680230631.613588,0,187500.0,-187500.022352,-78618.260159,-99463.318224,-87327.215055,-80572.361418,187500.0,-187500.022352,-187500.022352,-187500.022352,187500.0,187500.0,-85102.724743,-84654.214639,187500.0,187500.0
1680230631.613608,0,187500.0,-187500.022352,-78791.933214,-99565.041013,-86812.633194,-80721.939292,187500.0,-187500.022352,-187500.022352,-187500.022352,187500.0,187500.0,-85359.0769,-84908.108104,187500.0,187500.0
1680230631.613627,0,187500.0,-187500.022352,-78616.740241,-99510.03337,-87465.125318,-80484.809635,187500.0,-187500.022352,-187500.022352,-187500.022352,187500.0,187500.0,-85196.467959,-84750.19303,187500.0,187500.0
1680230631.613647,0,187500.0,-187500.022352,-78737.663178,-99476.505754,-86950.297588,-80844.873887,187500.0,-187500.022352,-187500.022352,-187500.022352,187500.0,187500.0,-85250.559181,-84800.082123,187500.0,187500.0
1680230631.613689,0,187500.0,-187500.022352,-78719.155934,-99579.48024,-87168.65178,-80664.450605,187500.0,-187500.022352,-187500.022352,-187500.022352,187500.0,187500.0,-85374.924287,-84962.691064,187500.0,187500.0
1680230631.613708,0,187500.0,-187500.022352,-78656.436939,-99470.291969,-87396.773684,-80753.4329,187500.0,-187500.022352,-187500.022352,-187500.022352,187500.0,187500.0,-85125.992909,-84715.793695,187500.0,187500.0
1680230631.613728,0,187500.0,-187500.022352,-78835.273246,-99553.954548,-86795.198833,-80915.036013,187500.0,-187500.022352,-187500.022352,-187500.022352,187500.0,187500.0,-85407.513131,-85013.317765,187500.0,187500.0
1680230631.613747,0,187500.0,-187500.022352,-78710.215236,-99561.375327,-87359.803898,-80685.573004,187500.0,-187500.022352,-187500.022352,-187500.022352,187500.0,187500.0,-85236.097602,-84848.384243,187500.0,187500.0
1680230631.613768,0,187500.0,-187500.022352,-78824.455002,-99505.786539,-86737.956016,-81011.930825,187500.0,-187500.022352,-187500.022352,-187500.022352,187500.0,187500.0,-85272.732112,-84868.9702,187500.0,187500.0
1680230632.092943,0,187500.0,-187500.022352,-78779.863272,-99577.178011,-86782.748912,-80739.239542,187500.0,-187500.022352,-187500.022352,-187500.022352,187500.0,187500.0,-85395.398485,-84997.604489,187500.0,187500.0
1680230632.092999,0,187500.0,-187500.022352,-78683.23668,-99470.090803,-86902.375448,-80743.285208,187500.0,-187500.022352,-187500.022352,-187500.022352,187500.0,187500.0,-85098.522615,-84673.213622,187500.0,187500.0
1680230632.093037,0,187500.0,-187500.022352,-78937.666588,-99708.539213,-86153.569657,-80965.707417,187500.0,-187500.022352,-187500.022352,-187500.022352,187500.0,187500.0,-85451.233143,-85000.957251,187500.0,187500.0
1680230632.093073,0,187500.0,-187500.022352,-78754.404635,-99723.716047,-86649.532515,-80599.943471,187500.0,-187500.022352,-187500.022352,-187500.022352,187500.0,187500.0,-85288.445388,-84878.469691,187500.0,187500.0
1680230632.093106,0,187500.0,-187500.022352,-78889.14095,-99731.807379,-86013.111295,-80889.018582,187500.0,-187500.022352,-187500.022352,-187500.022352,187500.0,187500.0,-85314.328708,-84876.79331,187500.0,187500.0
1680230632.093125,0,187500.0,-187500.022352,-78847.834927,-99841.777961,-86060.005255,-80579.759846,187500.0,-187500.022352,-187500.022352,-187500.022352,187500.0,187500.0,-85465.15828,-85055.4061,187500.0,187500.0
1680230632.093207,0,187500.0,-187500.022352,-78743.698149,-99706.348742,-86240.137963,-80597.261262,187500.0,-187500.022352,-187500.022352,-187500.022352,187500.0,187500.0,-85147.450584,-84723.370936,187500.0,187500.0
1680230632.093226,0,187500.0,-187500.022352,-78949.73653,-99859.346433,-85572.02197,-80793.487226,187500.0,-187500.022352,-187500.022352,-187500.022352,187500.0,187500.0,-85476.82589,-85088.33022,187500.0,187500.0
1680230632.093246,0,187500.0,-187500.022352,-78721.480515,-99804.919935,-86161.459823,-80480.227528,187500.0,-187500.022352,-187500.022352,-187500.022352,187500.0,187500.0,-85267.4571,-84905.001212,187500.0,187500.0
1680230632.093266,0,187500.0,-187500.022352,-78859.524889,-99760.730536,-85610.221101,-80865.728064,187500.0,-187500.022352,-187500.022352,-187500.022352,187500.0,187500.0,-85247.34053,-84853.927476,187500.0,187500.0
1680230632.093285,0,187500.0,-187500.022352,-78814.173199,-99877.294883,-85753.182859,-80651.508945,187500.0,-187500.022352,-187500.022352,-187500.022352,187500.0,187500.0,-85443.544143,-85055.719025,187500.0,187500.0
1680230632.093304,0,187500.0,-187500.022352,-78683.393143,-99690.143727,-86068.811842,-80661.43312,187500.0,-187500.022352,-187500.022352,-187500.022352,187500.0,187500.0,-85129.837409,-84682.131968,187500.0,187500.0
1680230632.093324,0,187500.0,-187500.022352,-78904.541302,-99844.460171,-85486.683009,-80877.999172,187500.0,-187500.022352,-187500.022352,-187500.022352,187500.0,187500.0,-85450.540239,-85002.186597,187500.0,187500.0
1680230632.093343,0,187500.0,-187500.022352,-78660.16968,-99769.246551,-86172.479233,-80487.961231,187500.0,-187500.022352,-187500.022352,-187500.022352,187500.0,187500.0,-85250.022739,-84858.375473,187500.0,187500.0
1680230632.093363,0,187500.0,-187500.022352,-78792.112028,-99721.927908,-85722.762134,-80828.847686,187500.0,-187500.022352,-187500.022352,-187500.022352,187500.0,187500.0,-85241.842001,-84781.619582,187500.0,187500.0
1680230632.093382,0,187500.0,-187500.022352,-78734.980969,-99846.7624,-85889.394389,-80564.82888,187500.0,-187500.022352,-187500.022352,-187500.022352,187500.0,187500.0,-85404.093314,-84980.997143,187500.0,187500.0
1680230632.093426,0,187500.0,-187500.022352,-78620.629444,-99688.042663,-86235.645263,-80599.451733,187500.0,-187500.022352,-187500.022352,-187500.022352,187500.0,187500.0,-85052.053339,-84658.84145,187500.0,187500.0
1680230632.093445,0,187500.0,-187500.022352,-78838.089566,-99849.399906,-85646.073299,-80821.404555,187500.0,-187500.022352,-187500.022352,-187500.022352,187500.0,187500.0,-85435.743384,-85006.925166,187500.0,187500.0
1680230632.093465,0,187500.0,-187500.022352,-78602.412772,-99779.908333,-86322.638252,-80477.366504,187500.0,-187500.022352,-187500.022352,-187500.022352,187500.0,187500.0,-85226.374594,-84805.468894,187500.0,187500.0
1680230632.093484,0,187500.0,-187500.022352,-78760.998399,-99742.71503,-85839.102964,-80831.351081,187500.0,-187500.022352,-187500.022352,-187500.022352,187500.0,187500.0,-85205.587471,-84788.906251,187500.0,187500.0
1680230632.093504,0,187500.0,-187500.022352,-78707.533027,-99876.423165,-85971.40294,-80605.777276,187500.0,-187500.022352,-187500.022352,-187500.022352,187500.0,187500.0,-85374.432549,-84964.210983,187500.0,187500.0
1680230632.093523,0,187500.0,-187500.022352,-78599.81997,-99703.018332,-86325.007537,-80640.601294,187500.0,-187500.022352,-187500.022352,-187500.022352,187500.0,187500.0,-85005.449951,-84634.858028,187500.0,187500.0
1680230632.093545,0,187500.0,-187500.022352,-78847.611409,-99855.099601,-85690.217994,-80713.736202,187500.0,-187500.022352,-187500.022352,-187500.022352,187500.0,187500.0,-85403.109837,-84948.117727,187500.0,187500.0
1680230632.093565,0,187500.0,-187500.022352,-78614.54977,-99798.013246,-86335.088174,-80374.235555,187500.0,-187500.022352,-187500.022352,-187500.022352,187500.0,187500.0,-85216.71864,-84713.580872,187500.0,187500.0
1680230632.093584,0,187500.0,-187500.022352,-78790.256833,-99703.554774,-85810.537435,-80842.079919,187500.0,-187500.022352,-187500.022352,-187500.022352,187500.0,187500.0,-85178.54186,-84736.379652,187500.0,187500.0
1680230632.093604,0,187500.0,-187500.022352,-78696.155989,-99755.924911,-85851.798755,-80587.292384,187500.0,-187500.022352,-187500.022352,-187500.022352,187500.0,187500.0,-85384.155558,-84942.194515,187500.0,187500.0
1680230632.093623,0,187500.0,-187500.022352,-78576.574156,-99559.453077,-86147.914666,-80644.870477,187500.0,-187500.022352,-187500.022352,-187500.022352,187500.0,187500.0,-84993.447065,-84547.261542,187500.0,187500.0
1680230632.093665,0,187500.0,-187500.022352,-78823.292711,-99729.77337,-85456.642265,-80914.790143,187500.0,-187500.022352,-187500.022352,-187500.022352,187500.0,187500.0,-85405.345011,-84941.546314,187500.0,187500.0
1680230632.093685,0,187500.0,-187500.022352,-78595.483732,-99674.653968,-86078.914831,-80581.99502,187500.0,-187500.022352,-187500.022352,-187500.022352,187500.0,187500.0,-85155.519564,-84731.842247,187500.0,187500.0
1680230632.093705,0,187500.0,-187500.022352,-78742.111175,-99631.358639,-85565.852888,-80975.765702,187500.0,-187500.022352,-187500.022352,-187500.022352,187500.0,187500.0,-85149.529296,-84714.497294,187500.0,187500.0
1680230632.093724,0,187500.0,-187500.022352,-78728.253094,-99763.993891,-85555.168754,-80750.549525,187500.0,-187500.022352,-187500.022352,-187500.022352,187500.0,187500.0,-85378.478215,-84930.839828,187500.0,187500.0
1680230632.093743,0,187500.0,-187500.022352,-78605.631424,-99638.265328,-85857.833726,-80710.495199,187500.0,-187500.022352,-187500.022352,-187500.022352,187500.0,187500.0,-85024.247768,-84605.823112,187500.0,187500.0
1680230632.093762,0,187500.0,-187500.022352,-78825.773755,-99838.894586,-85182.185195,-80870.980724,187500.0,-187500.022352,-187500.022352,-187500.022352,187500.0,187500.0,-85376.712427,-84936.271302,187500.0,187500.0
1680230632.093782,0,187500.0,-187500.022352,-78624.786869,-99835.407714,-85785.838757,-80462.793167,187500.0,-187500.022352,-187500.022352,-187500.022352,187500.0,187500.0,-85208.940233,-84782.200728,187500.0,187500.0
1680230632.093802,0,187500.0,-187500.022352,-78725.25796,-99797.543859,-85324.185827,-80731.751708,187500.0,-187500.022352,-187500.022352,-187500.022352,187500.0,187500.0,-85171.903392,-84713.737334,187500.0,187500.0
1680230632.093821,0,187500.0,-187500.022352,-78718.97712,-99933.844797,-85314.440467,-80480.562804,187500.0,-187500.022352,-187500.022352,-187500.022352,187500.0,187500.0,-85394.616174,-84938.104145,187500.0,187500.0
1680230632.09384,0,187500.0,-187500.022352,-78567.27583,-99755.254359,-85646.676796,-80447.593981,187500.0,-187500.022352,-187500.022352,-187500.022352,187500.0,187500.0,-85054.310865,-84600.168121,187500.0,187500.0
1680230632.093882,0,187500.0,-187500.022352,-78790.949737,-99898.327875,-85000.331402,-80723.302749,187500.0,-187500.022352,-187500.022352,-187500.022352,187500.0,187500.0,-85349.309188,-84926.548293,187500.0,187500.0
1680230632.093904,0,187500.0,-187500.022352,-78615.935578,-99880.602942,-85631.47761,-80426.069251,187500.0,-187500.022352,-187500.022352,-187500.022352,187500.0,187500.0,-85197.764361,-84812.308528,187500.0,187500.0
1680230632.093923,0,187500.0,-187500.022352,-78792.335545,-99862.38627,-85179.95002,-80868.902012,187500.0,-187500.022352,-187500.022352,-187500.022352,187500.0,187500.0,-85165.734311,-84784.011219,187500.0,187500.0
1680230632.093942,0,187500.0,-187500.022352,-78800.650394,-100007.404388,-85158.715863,-80713.423278,187500.0,-187500.022352,-187500.022352,-187500.022352,187500.0,187500.0,-85428.568474,-85081.311772,187500.0,187500.0
1680230632.093962,0,187500.0,-187500.022352,-78633.638159,-99836.212377,-85530.984167,-80680.923841,187500.0,-187500.022352,-187500.022352,-187500.022352,187500.0,187500.0,-85078.830728,-84709.557558,187500.0,187500.0
1680230632.093982,0,187500.0,-187500.022352,-78862.922354,-99979.285893,-84857.816679,-80968.881365,187500.0,-187500.022352,-187500.022352,-187500.022352,187500.0,187500.0,-85395.130264,-84984.774588,187500.0,187500.0
1680230632.094002,0,187500.0,-187500.022352,-78667.85868,-99967.752393,-85456.552858,-80621.691718,187500.0,-187500.022352,-187500.022352,-187500.022352,187500.0,187500.0,-85244.658321,-84826.43483,187500.0,187500.0
1680230632.094021,0,187500.0,-187500.022352,-78789.720391,-99928.145102,-85027.779344,-80948.049539,187500.0,-187500.022352,-187500.022352,-187500.022352,187500.0,187500.0,-85192.332887,-84762.508841,187500.0,187500.0
1680230632.094041,0,187500.0,-187500.022352,-78785.719429,-100088.004778,-84980.371294,-80678.979239,187500.0,-187500.022352,-187500.022352,-187500.022352,187500.0,187500.0,-85393.990325,-85006.656946,187500.0,187500.0
1680230632.09406,0,187500.0,-187500.022352,-78598.009479,-99919.986715,-85370.945677,-80462.659057,187500.0,-187500.022352,-187500.022352,-187500.022352,187500.0,187500.0,-85072.818109,-84651.085395,187500.0,187500.0
1680230632.094079,0,187500.0,-187500.022352,-78831.182877,-100038.629775,-84684.545956,-80641.093032,187500.0,-187500.022352,-187500.022352,-187500.022352,187500.0,187500.0,-85337.082784,-84943.625026,187500.0,187500.0
1680230632.094249,0,187500.0,-187500.022352,-78646.624523,-99962.343271,-85270.675751,-80310.957767,187500.0,-187500.022352,-187500.022352,-187500.022352,187500.0,187500.0,-85193.539881,-84791.499053,187500.0,187500.0
1680230632.09427,0,187500.0,-187500.022352,-78721.458163,-99840.526264,-84902.475465,-80686.332963,187500.0,-187500.022352,-187500.022352,-187500.022352,187500.0,187500.0,-85147.964674,-84759.133727,187500.0,187500.0
1680230632.09429,0,187500.0,-187500.022352,-78801.700926,-99992.56283,-84858.308418,-80690.736257,187500.0,-187500.022352,-187500.022352,-187500.022352,187500.0,187500.0,-85366.922363,-85007.752181,187500.0,187500.0
1680230632.094309,0,187500.0,-187500.022352,-78687.997602,-99842.850845,-85280.711684,-80717.379536,187500.0,-187500.022352,-187500.022352,-187500.022352,187500.0,187500.0,-85126.864627,-84755.44569,187500.0,187500.0
1680230632.094329,0,187500.0,-187500.022352,-78853.668732,-99926.669887,-84662.127157,-81002.431333,187500.0,-187500.022352,-187500.022352,-187500.022352,187500.0,187500.0,-85388.268279,-85002.298355,187500.0,187500.0
1680230632.094349,0,187500.0,-187500.022352,-78697.877073,-99923.451236,-85294.435655,-80716.463115,187500.0,-187500.022352,-187500.022352,-187500.022352,187500.0,187500.0,-85266.719492,-84883.342371,187500.0,187500.0
1680230632.09437,0,187500.0,-187500.022352,-78792.335545,-99895.198631,-84957.281942,-80966.154452,187500.0,-187500.022352,-187500.022352,-187500.022352,187500.0,187500.0,-85220.004346,-84790.984963,187500.0,187500.0
1680230632.09439,0,187500.0,-187500.022352,-78870.387837,-100097.213697,-84908.152808,-80794.738924,187500.0,-187500.022352,-187500.022352,-187500.022352,187500.0,187500.0,-85488.918184,-85057.395405,187500.0,187500.0
1680230632.094409,0,187500.0,-187500.022352,-78698.212349,-99966.567751,-85374.477252,-80613.555683,187500.0,-187500.022352,-187500.022352,-187500.022352,187500.0,187500.0,-85192.601108,-84761.547716,187500.0,187500.0
1680230632.094428,0,187500.0,-187500.022352,-78890.526758,-100121.867671,-84741.140573,-80819.705822,187500.0,-187500.022352,-187500.022352,-187500.022352,187500.0,187500.0,-85454.071814,-85018.570425,187500.0,187500.0
1680230632.094448,0,187500.0,-187500.022352,-78725.794402,-100124.751046,-85316.452124,-80491.850435,187500.0,-187500.022352,-187500.022352,-187500.022352,187500.0,187500.0,-85336.725156,-84950.934047,187500.0,187500.0
1680230632.094493,0,187500.0,-187500.022352,-78790.279185,-100064.937778,-84993.268251,-80763.446482,187500.0,-187500.022352,-187500.022352,-187500.022352,187500.0,187500.0,-85263.389082,-84885.801063,187500.0,187500.0
1680230632.572973,0,187500.0,-187500.022352,-78787.552272,-100190.778099,-84930.526904,-80624.351576,187500.0,-187500.022352,-187500.022352,-187500.022352,187500.0,187500.0,-85448.327416,-85065.129109,187500.0,187500.0
1680230632.573028,0,187500.0,-187500.022352,-78674.206576,-100065.004833,-85337.127487,-80598.669422,187500.0,-187500.022352,-187500.022352,-187500.022352,187500.0,187500.0,-85163.767357,-84780.144367,187500.0,187500.0
1680230632.573059,0,187500.0,-187500.022352,-78849.086624,-100151.886064,-84684.34479,-80849.232477,187500.0,-187500.022352,-187500.022352,-187500.022352,187500.0,187500.0,-85377.830014,-84994.855224,187500.0,187500.0
1680230632.573095,0,187500.0,-187500.022352,-78744.256943,-100188.319408,-85215.82457,-80582.285593,187500.0,-187500.022352,-187500.022352,-187500.022352,187500.0,187500.0,-85304.985679,-84923.799029,187500.0,187500.0
1680230632.573124,0,187500.0,-187500.022352,-78790.390943,-100100.32059,-84893.110084,-80844.672721,187500.0,-187500.022352,-187500.022352,-187500.022352,187500.0,187500.0,-85189.024829,-84793.555414,187500.0,187500.0
1680230632.573143,0,187500.0,-187500.022352,-78859.189613,-100224.328068,-84745.432108,-80680.946193,187500.0,-187500.022352,-187500.022352,-187500.022352,187500.0,187500.0,-85450.786108,-85004.220605,187500.0,187500.0
1680230632.573164,0,187500.0,-187500.022352,-78689.472817,-100108.724845,-85216.875102,-80486.754237,187500.0,-187500.022352,-187500.022352,-187500.022352,187500.0,187500.0,-85172.506889,-84707.590605,187500.0,187500.0
1680230632.573183,0,187500.0,-187500.022352,-78835.31795,-100151.751954,-84649.274903,-80748.448461,187500.0,-187500.022352,-187500.022352,-187500.022352,187500.0,187500.0,-85326.644519,-84860.968275,187500.0,187500.0
1680230632.573204,0,187500.0,-187500.022352,-78719.379451,-100032.907728,-85099.886072,-80562.77252,187500.0,-187500.022352,-187500.022352,-187500.022352,187500.0,187500.0,-85305.924452,-84847.110194,187500.0,187500.0
1680230632.573305,0,187500.0,-187500.022352,-78798.325813,-100130.227224,-84883.990572,-80708.550597,187500.0,-187500.022352,-187500.022352,-187500.022352,187500.0,187500.0,-85237.885742,-84818.388202,187500.0,187500.0
1680230632.57333,0,187500.0,-187500.022352,-78830.132345,-100094.68795,-84765.548678,-80762.15008,187500.0,-187500.022352,-187500.022352,-187500.022352,187500.0,187500.0,-85429.619006,-85012.803675,187500.0,187500.0
1680230632.57335,0,187500.0,-187500.022352,-78779.32683,-100067.172953,-85146.668273,-80732.355205,187500.0,-187500.022352,-187500.022352,-187500.022352,187500.0,187500.0,-85274.296734,-84875.608668,187500.0,187500.0
1680230632.57337,0,187500.0,-187500.022352,-78906.128276,-100176.227114,-84604.929042,-80920.579245,187500.0,-187500.022352,-187500.022352,-187500.022352,187500.0,187500.0,-85453.848297,-85037.547056,187500.0,187500.0
1680230632.57339,0,187500.0,-187500.022352,-78795.844769,-100066.703566,-85017.251672,-80820.868113,187500.0,-187500.022352,-187500.022352,-187500.022352,187500.0,187500.0,-85402.528692,-84974.135157,187500.0,187500.0
1680230632.57341,0,187500.0,-187500.022352,-78864.621087,-100159.306843,-84796.282327,-80944.652074,187500.0,-187500.022352,-187500.022352,-187500.022352,187500.0,187500.0,-85318.933167,-84900.933194,187500.0,187500.0
1680230632.573429,0,187500.0,-187500.022352,-78890.906738,-100206.044341,-84654.929895,-80904.418934,187500.0,-187500.022352,-187500.022352,-187500.022352,187500.0,187500.0,-85498.685896,-85011.753143,187500.0,187500.0
1680230632.573448,0,187500.0,-187500.022352,-78804.249025,-100148.935634,-85041.503315,-80769.302639,187500.0,-187500.022352,-187500.022352,-187500.022352,187500.0,187500.0,-85348.102194,-84853.011054,187500.0,187500.0
1680230632.573468,0,187500.0,-187500.022352,-78891.711401,-100260.694356,-84525.870922,-80776.634011,187500.0,-187500.022352,-187500.022352,-187500.022352,187500.0,187500.0,-85385.049627,-84930.370442,187500.0,187500.0
1680230632.573488,0,187500.0,-187500.022352,-78790.323888,-100194.689655,-84880.548403,-80582.598517,187500.0,-187500.022352,-187500.022352,-187500.022352,187500.0,187500.0,-85369.291648,-84856.967313,187500.0,187500.0
1680230632.573508,0,187500.0,-187500.022352,-78843.208115,-100257.945091,-84637.272017,-80638.813155,187500.0,-187500.022352,-187500.022352,-187500.022352,187500.0,187500.0,-85268.194707,-84801.44558,187500.0,187500.0
1680230632.573554,0,187500.0,-187500.022352,-78807.1324,-100187.246524,-84444.510572,-80587.76177,187500.0,-187500.022352,-187500.022352,-187500.022352,187500.0,187500.0,-85379.305229,-84926.928273,187500.0,187500.0
1680230632.573573,0,187500.0,-187500.022352,-78709.522332,-100112.949325,-84801.736152,-80476.606545,187500.0,-187500.022352,-187500.022352,-187500.022352,187500.0,187500.0,-85219.847884,-84711.435105,187500.0,187500.0
1680230632.573594,0,187500.0,-187500.022352,-78824.29854,-100228.060809,-84253.917248,-80661.924858,187500.0,-187500.022352,-187500.022352,-187500.022352,187500.0,187500.0,-85291.708743,-84822.344461,187500.0,187500.0
1680230632.573614,0,187500.0,-187500.022352,-78712.852742,-100098.755967,-84608.773542,-80537.649159,187500.0,-187500.022352,-187500.022352,-187500.022352,187500.0,187500.0,-85266.115995,-84817.695298,187500.0,187500.0
1680230632.573633,0,187500.0,-187500.022352,-78746.112138,-100169.655701,-84413.642813,-80600.05523,187500.0,-187500.022352,-187500.022352,-187500.022352,187500.0,187500.0,-85176.709017,-84747.734338,187500.0,187500.0
1680230632.573653,0,187500.0,-187500.022352,-78712.249245,-100122.471168,-84258.678169,-80610.024108,187500.0,-187500.022352,-187500.022352,-187500.022352,187500.0,187500.0,-85250.112146,-84817.985871,187500.0,187500.0
1680230632.573674,0,187500.0,-187500.022352,-78669.512709,-100068.536409,-84610.941662,-80540.621941,187500.0,-187500.022352,-187500.022352,-187500.022352,187500.0,187500.0,-85154.714901,-84694.112503,187500.0,187500.0
1680230632.573695,0,187500.0,-187500.022352,-78769.469711,-100158.323366,-84112.207188,-80639.01432,187500.0,-187500.022352,-187500.022352,-187500.022352,187500.0,187500.0,-85197.004401,-84774.042341,187500.0,187500.0
1680230632.573714,0,187500.0,-187500.022352,-78695.932471,-100060.422726,-84468.941029,-80549.652046,187500.0,-187500.022352,-187500.022352,-187500.022352,187500.0,187500.0,-85253.777832,-84770.667228,187500.0,187500.0
1680230632.573734,0,187500.0,-187500.022352,-78735.092728,-100130.316631,-84310.914196,-80633.202867,187500.0,-187500.022352,-187500.022352,-187500.022352,187500.0,187500.0,-85164.080282,-84701.041544,187500.0,187500.0
1680230632.573777,0,187500.0,-187500.022352,-78771.704885,-100137.983279,-84135.028319,-80677.70519,187500.0,-187500.022352,-187500.022352,-187500.022352,187500.0,187500.0,-85278.454158,-84848.294836,187500.0,187500.0
1680230632.573797,0,187500.0,-187500.022352,-78651.944238,-100044.530635,-84555.218763,-80539.258485,187500.0,-187500.022352,-187500.022352,-187500.022352,187500.0,187500.0,-85155.47486,-84655.533392,187500.0,187500.0
1680230632.573818,0,187500.0,-187500.022352,-78827.293673,-100208.704198,-84055.545515,-80759.981961,187500.0,-187500.022352,-187500.022352,-187500.022352,187500.0,187500.0,-85219.959643,-84790.04619,187500.0,187500.0
1680230632.573838,0,187500.0,-187500.022352,-78743.429928,-100098.420691,-84423.790505,-80657.655675,187500.0,-187500.022352,-187500.022352,-187500.022352,187500.0,187500.0,-85295.888519,-84824.557283,187500.0,187500.0
1680230632.573858,0,187500.0,-187500.022352,-78832.12165,-100256.045193,-84265.897783,-80777.125749,187500.0,-187500.022352,-187500.022352,-187500.022352,187500.0,187500.0,-85190.790616,-84806.765295,187500.0,187500.0
1680230632.573878,0,187500.0,-187500.022352,-78846.538525,-100248.602062,-84071.281144,-80786.49113,187500.0,-187500.022352,-187500.022352,-187500.022352,187500.0,187500.0,-85344.190639,-84957.930143,187500.0,187500.0
1680230632.573897,0,187500.0,-187500.022352,-78759.254963,-100187.20182,-84474.439558,-80645.67514,187500.0,-187500.022352,-187500.022352,-187500.022352,187500.0,187500.0,-85249.083966,-84830.704013,187500.0,187500.0
1680230632.573917,0,187500.0,-187500.022352,-78866.118654,-100339.171331,-83955.141479,-80781.596098,187500.0,-187500.022352,-187500.022352,-187500.022352,187500.0,187500.0,-85296.559071,-84897.021639,187500.0,187500.0
1680230632.573936,0,187500.0,-187500.022352,-78780.891452,-100211.654629,-84312.344708,-80701.599205,187500.0,-187500.022352,-187500.022352,-187500.022352,187500.0,187500.0,-85310.707725,-84899.21211,187500.0,187500.0
1680230632.573955,0,187500.0,-187500.022352,-78847.522002,-100366.440459,-84155.524868,-80823.25975,187500.0,-187500.022352,-187500.022352,-187500.022352,187500.0,187500.0,-85229.705003,-84815.080144,187500.0,187500.0
1680230632.573974,0,187500.0,-187500.022352,-78845.979732,-100333.985726,-83970.452424,-80821.024575,187500.0,-187500.022352,-187500.022352,-187500.022352,187500.0,187500.0,-85365.961238,-84973.486957,187500.0,187500.0
1680230632.574017,0,187500.0,-187500.022352,-78761.937173,-100296.703016,-84402.690459,-80682.95785,187500.0,-187500.022352,-187500.022352,-187500.022352,187500.0,187500.0,-85221.099582,-84780.747864,187500.0,187500.0
1680230632.574039,0,187500.0,-187500.022352,-78887.777494,-100454.819257,-83852.211696,-80804.774857,187500.0,-187500.022352,-187500.022352,-187500.022352,187500.0,187500.0,-85309.165455,-84907.124627,187500.0,187500.0
1680230632.574058,0,187500.0,-187500.022352,-78775.012943,-100351.598901,-84203.156436,-80607.028974,187500.0,-187500.022352,-187500.022352,-187500.022352,187500.0,187500.0,-85346.403461,-84892.819511,187500.0,187500.0
1680230632.574083,0,187500.0,-187500.022352,-78806.417144,-100476.612207,-84062.563963,-80627.99491,187500.0,-187500.022352,-187500.022352,-187500.022352,187500.0,187500.0,-85204.447532,-84803.792513,187500.0,187500.0
1680230632.574117,0,187500.0,-187500.022352,-78816.676595,-100458.104963,-83859.9454,-80573.590764,187500.0,-187500.022352,-187500.022352,-187500.022352,187500.0,187500.0,-85368.866964,-84994.587004,187500.0,187500.0
1680230632.574146,0,187500.0,-187500.022352,-78709.254111,-100339.864235,-84347.235781,-80450.902039,187500.0,-187500.022352,-187500.022352,-187500.022352,187500.0,187500.0,-85174.652657,-84787.408684,187500.0,187500.0
1680230632.574176,0,187500.0,-187500.022352,-78853.378159,-100517.65001,-83803.484893,-80680.365047,187500.0,-187500.022352,-187500.022352,-187500.022352,187500.0,187500.0,-85273.313257,-84943.826192,187500.0,187500.0
1680230632.574204,0,187500.0,-187500.022352,-78724.900332,-100287.829374,-84225.217608,-80522.91936,187500.0,-187500.022352,-187500.022352,-187500.022352,187500.0,187500.0,-85263.187917,-84872.926458,187500.0,187500.0
1680230632.574232,0,187500.0,-187500.022352,-78833.798031,-100386.400567,-84119.113877,-80685.215376,187500.0,-187500.022352,-187500.022352,-187500.022352,187500.0,187500.0,-85152.613837,-84800.707972,187500.0,187500.0
1680230632.574261,0,187500.0,-187500.022352,-78865.783377,-100349.564892,-83918.618729,-80729.628292,187500.0,-187500.022352,-187500.022352,-187500.022352,187500.0,187500.0,-85411.827017,-84994.40819,187500.0,187500.0
1680230632.574323,0,187500.0,-187500.022352,-78737.439661,-100180.742166,-84426.629177,-80682.667277,187500.0,-187500.022352,-187500.022352,-187500.022352,187500.0,187500.0,-85222.016003,-84776.255164,187500.0,187500.0
1680230632.574353,0,187500.0,-187500.022352,-78913.884331,-100344.535749,-83887.639211,-81001.581967,187500.0,-187500.022352,-187500.022352,-187500.022352,187500.0,187500.0,-85333.685319,-84939.042919,187500.0,187500.0
1680230632.574381,0,187500.0,-187500.022352,-78776.286993,-100176.338872,-84401.930499,-80842.86223,187500.0,-187500.022352,-187500.022352,-187500.022352,187500.0,187500.0,-85376.734778,-84922.703793,187500.0,187500.0
1680230632.574409,0,187500.0,-187500.022352,-78832.836906,-100282.599066,-84320.212522,-80948.496574,187500.0,-187500.022352,-187500.022352,-187500.022352,187500.0,187500.0,-85254.582495,-84797.08699,187500.0,187500.0
1680230632.574429,0,187500.0,-187500.022352,-78871.170148,-100339.394848,-84085.005115,-80932.336263,187500.0,-187500.022352,-187500.022352,-187500.022352,187500.0,187500.0,-85461.537297,-84994.005858,187500.0,187500.0
1680230632.574448,0,187500.0,-187500.022352,-78745.50864,-100275.670025,-84607.5889,-80700.660431,187500.0,-187500.022352,-187500.022352,-187500.022352,187500.0,187500.0,-85300.828254,-84815.236606,187500.0,187500.0
1680230632.574468,0,187500.0,-187500.022352,-78877.428636,-100475.539324,-84016.65348,-80839.844744,187500.0,-187500.022352,-187500.022352,-187500.022352,187500.0,187500.0,-85341.933112,-84927.688232,187500.0,187500.0
1680230632.574489,0,187500.0,-187500.022352,-78744.078129,-100341.920595,-84390.307592,-80603.251529,187500.0,-187500.022352,-187500.022352,-187500.022352,187500.0,187500.0,-85368.55404,-84921.809724,187500.0,187500.0
1680230632.574508,0,187500.0,-187500.022352,-78788.178121,-100441.341155,-84277.453634,-80666.3058,187500.0,-187500.022352,-187500.022352,-187500.022352,187500.0,187500.0,-85224.899378,-84799.076295,187500.0,187500.0
1680230632.574528,0,187500.0,-187500.022352,-78846.739691,-100482.982455,-84019.156876,-80676.833472,187500.0,-187500.022352,-187500.022352,-187500.022352,187500.0,187500.0,-85388.044761,-84975.476262,187500.0,187500.0
1680230633.052847,0,187500.0,-187500.022352,-78699.933434,-100325.492063,-84550.547248,-80535.637502,187500.0,-187500.022352,-187500.022352,-187500.022352,187500.0,187500.0,-85217.255082,-84757.814975,187500.0,187500.0
1680230633.052961,0,187500.0,-187500.022352,-78905.480076,-100527.238909,-83930.174581,-80847.578448,187500.0,-187500.022352,-187500.022352,-187500.022352,187500.0,187500.0,-85321.861246,-84918.769886,187500.0,187500.0
1680230633.05299,0,187500.0,-187500.022352,-78767.055722,-100349.095505,-84332.438926,-80660.494347,187500.0,-187500.022352,-187500.022352,-187500.022352,187500.0,187500.0,-85370.655104,-84894.115912,187500.0,187500.0
1680230633.053009,0,187500.0,-187500.022352,-78842.336397,-100433.138065,-84243.993073,-80852.138204,187500.0,-187500.022352,-187500.022352,-187500.022352,187500.0,187500.0,-85183.369837,-84757.36794,187500.0,187500.0
1680230633.053028,0,187500.0,-187500.022352,-78927.809468,-100529.205862,-83926.017156,-80916.466524,187500.0,-187500.022352,-187500.022352,-187500.022352,187500.0,187500.0,-85473.450777,-85039.961045,187500.0,187500.0
1680230633.053048,0,187500.0,-187500.022352,-78786.166464,-100391.854393,-84433.424107,-80757.858546,187500.0,-187500.022352,-187500.022352,-187500.022352,187500.0,187500.0,-85263.389082,-84821.003356,187500.0,187500.0
1680230633.053068,0,187500.0,-187500.022352,-78963.32639,-100607.682837,-83808.536388,-80848.606628,187500.0,-187500.022352,-187500.022352,-187500.022352,187500.0,187500.0,-85345.263522,-84943.133288,187500.0,187500.0
1680230633.053087,0,187500.0,-187500.022352,-78874.008819,-100514.409007,-84159.190555,-80584.341953,187500.0,-187500.022352,-187500.022352,-187500.022352,187500.0,187500.0,-85416.073849,-84923.955491,187500.0,187500.0
1680230633.053106,0,187500.0,-187500.022352,-78889.677392,-100539.957051,-84080.870042,-80631.526486,187500.0,-187500.022352,-187500.022352,-187500.022352,187500.0,187500.0,-85265.691312,-84778.557393,187500.0,187500.0
1680230633.053125,0,187500.0,-187500.022352,-78954.922134,-100573.708185,-83758.289666,-80680.365047,187500.0,-187500.022352,-187500.022352,-187500.022352,187500.0,187500.0,-85450.674349,-85029.813353,187500.0,187500.0
1680230633.053146,0,187500.0,-187500.022352,-78819.761136,-100408.48409,-84301.057077,-80602.759791,187500.0,-187500.022352,-187500.022352,-187500.022352,187500.0,187500.0,-85254.470736,-84816.868283,187500.0,187500.0
1680230633.053164,0,187500.0,-187500.022352,-78994.32826,-100543.7792,-83685.735903,-80932.269208,187500.0,-187500.022352,-187500.022352,-187500.022352,187500.0,187500.0,-85385.988401,-84963.473375,187500.0,187500.0
1680230633.053212,0,187500.0,-187500.022352,-78869.136139,-100384.925352,-84049.085861,-80802.897311,187500.0,-187500.022352,-187500.022352,-187500.022352,187500.0,187500.0,-85405.523825,-84987.926184,187500.0,187500.0
1680230633.053236,0,187500.0,-187500.022352,-78932.659797,-100476.455745,-83965.40093,-81009.807409,187500.0,-187500.022352,-187500.022352,-187500.022352,187500.0,187500.0,-85286.6796,-84857.079072,187500.0,187500.0
1680230633.053254,0,187500.0,-187500.022352,-78957.649047,-100521.382752,-83613.584472,-80993.825912,187500.0,-187500.022352,-187500.022352,-187500.022352,187500.0,187500.0,-85461.626704,-85045.973664,187500.0,187500.0
1680230633.053274,0,187500.0,-187500.022352,-78791.441475,-100376.476392,-84146.897095,-80747.487336,187500.0,-187500.022352,-187500.022352,-187500.022352,187500.0,187500.0,-85262.71853,-84788.146292,187500.0,187500.0
1680230633.053293,0,187500.0,-187500.022352,-78952.82107,-100549.903578,-83521.56234,-80926.41305,187500.0,-187500.022352,-187500.022352,-187500.022352,187500.0,187500.0,-85311.53474,-84887.142168,187500.0,187500.0
1680230633.053312,0,187500.0,-187500.022352,-78813.837923,-100487.206934,-83854.670388,-80655.375797,187500.0,-187500.022352,-187500.022352,-187500.022352,187500.0,187500.0,-85368.576392,-84880.391941,187500.0,187500.0
1680230633.053331,0,187500.0,-187500.022352,-78807.557083,-100506.943525,-83819.801667,-80654.280562,187500.0,-187500.022352,-187500.022352,-187500.022352,187500.0,187500.0,-85135.380642,-84715.257253,187500.0,187500.0
1680230633.05335,0,187500.0,-187500.022352,-78860.3072,-100581.017206,-83472.924945,-80636.95796,187500.0,-187500.022352,-187500.022352,-187500.022352,187500.0,187500.0,-85365.670665,-84891.634869,187500.0,187500.0
1680230633.05337,0,187500.0,-187500.022352,-78686.365925,-100432.042829,-84043.028539,-80409.640719,187500.0,-187500.022352,-187500.022352,-187500.022352,187500.0,187500.0,-85164.259096,-84704.059029,187500.0,187500.0
1680230633.053388,0,187500.0,-187500.022352,-78846.203249,-100555.290348,-83447.712177,-80642.590599,187500.0,-187500.022352,-187500.022352,-187500.022352,187500.0,187500.0,-85210.57191,-84764.699312,187500.0,187500.0
1680230633.053431,0,187500.0,-187500.022352,-78748.079091,-100467.67151,-83767.364474,-80492.543339,187500.0,-187500.022352,-187500.022352,-187500.022352,187500.0,187500.0,-85289.764141,-84819.818714,187500.0,187500.0
1680230633.053451,0,187500.0,-187500.022352,-78787.39581,-100474.444088,-83757.57441,-80665.098806,187500.0,-187500.022352,-187500.022352,-187500.022352,187500.0,187500.0,-85104.490531,-84659.668465,187500.0,187500.0
1680230633.05347,0,187500.0,-187500.022352,-78908.721078,-100558.039613,-83405.512083,-80814.989604,187500.0,-187500.022352,-187500.022352,-187500.022352,187500.0,187500.0,-85363.726063,-84913.584282,187500.0,187500.0
1680230633.05349,0,187500.0,-187500.022352,-78764.999362,-100464.072879,-83953.666264,-80709.601129,187500.0,-187500.022352,-187500.022352,-187500.022352,187500.0,187500.0,-85226.151076,-84757.993788,187500.0,187500.0
1680230633.053509,0,187500.0,-187500.022352,-78910.218645,-100562.353499,-83391.788112,-80915.952434,187500.0,-187500.022352,-187500.022352,-187500.022352,187500.0,187500.0,-85290.367638,-84866.690322,187500.0,187500.0
1680230633.053528,0,187500.0,-187500.022352,-78785.495911,-100470.688995,-83685.154758,-80725.157943,187500.0,-187500.022352,-187500.022352,-187500.022352,187500.0,187500.0,-85342.246037,-84883.632944,187500.0,187500.0
1680230633.053547,0,187500.0,-187500.022352,-78840.816479,-100541.901653,-83637.567894,-80843.041044,187500.0,-187500.022352,-187500.022352,-187500.022352,187500.0,187500.0,-85182.475767,-84726.120201,187500.0,187500.0
1680230633.053568,0,187500.0,-187500.022352,-78896.762895,-100592.327189,-83272.899183,-80829.853514,187500.0,-187500.022352,-187500.022352,-187500.022352,187500.0,187500.0,-85414.710392,-84966.602619,187500.0,187500.0
1680230633.053588,0,187500.0,-187500.022352,-78758.204431,-100504.440129,-83785.447035,-80668.473919,187500.0,-187500.022352,-187500.022352,-187500.022352,187500.0,187500.0,-85251.83323,-84790.381466,187500.0,187500.0
1680230633.053608,0,187500.0,-187500.022352,-78940.371149,-100693.580591,-83198.780799,-80903.278995,187500.0,-187500.022352,-187500.022352,-187500.022352,187500.0,187500.0,-85321.973005,-84884.661124,187500.0,187500.0
1680230633.053627,0,187500.0,-187500.022352,-78807.042993,-100581.620703,-83462.531383,-80703.499103,187500.0,-187500.022352,-187500.022352,-187500.022352,187500.0,187500.0,-85364.262505,-84936.338357,187500.0,187500.0
1680230633.053669,0,187500.0,-187500.022352,-78786.613499,-100582.671235,-83460.05034,-80784.702991,187500.0,-187500.022352,-187500.022352,-187500.022352,187500.0,187500.0,-85174.786767,-84745.208591,187500.0,187500.0
1680230633.053688,0,187500.0,-187500.022352,-78900.92032,-100686.763309,-83067.821928,-80845.075052,187500.0,-187500.022352,-187500.022352,-187500.022352,187500.0,187500.0,-85402.908671,-84971.251782,187500.0,187500.0
1680230633.053708,0,187500.0,-187500.022352,-78736.076204,-100545.410877,-83563.605972,-80682.287298,187500.0,-187500.022352,-187500.022352,-187500.022352,187500.0,187500.0,-85236.030547,-84805.826522,187500.0,187500.0
1680230633.053727,0,187500.0,-187500.022352,-78904.742468,-100717.65342,-83003.627718,-80900.797951,187500.0,-187500.022352,-187500.022352,-187500.022352,187500.0,187500.0,-85312.04883,-84907.012869,187500.0,187500.0
1680230633.053746,0,187500.0,-187500.022352,-78811.558045,-100643.311518,-83251.061529,-80783.071313,187500.0,-187500.022352,-187500.022352,-187500.022352,187500.0,187500.0,-85350.292665,-84956.633741,187500.0,187500.0
1680230633.053766,0,187500.0,-187500.022352,-78804.137266,-100659.248311,-83289.439474,-80819.906988,187500.0,-187500.022352,-187500.022352,-187500.022352,187500.0,187500.0,-85220.473733,-84822.344461,187500.0,187500.0
1680230633.053785,0,187500.0,-187500.022352,-78862.542374,-100716.781702,-82941.199296,-80837.408404,187500.0,-187500.022352,-187500.022352,-187500.022352,187500.0,187500.0,-85347.521048,-84965.350922,187500.0,187500.0
1680230633.053804,0,187500.0,-187500.022352,-78725.973216,-100622.904375,-83474.064883,-80676.319382,187500.0,-187500.022352,-187500.022352,-187500.022352,187500.0,187500.0,-85193.875157,-84766.912135,187500.0,187500.0
1680230633.053823,0,187500.0,-187500.022352,-78858.452005,-100755.181999,-82960.891183,-80792.839026,187500.0,-187500.022352,-187500.022352,-187500.022352,187500.0,187500.0,-85246.044129,-84874.289915,187500.0,187500.0
1680230633.053843,0,187500.0,-187500.022352,-78737.238495,-100669.194838,-83247.909933,-80591.807436,187500.0,-187500.022352,-187500.022352,-187500.022352,187500.0,187500.0,-85281.158719,-84850.597066,187500.0,187500.0
1680230633.053891,0,187500.0,-187500.022352,-78765.133472,-100677.844963,-83313.177027,-80629.581884,187500.0,-187500.022352,-187500.022352,-187500.022352,187500.0,187500.0,-85119.063868,-84734.345643,187500.0,187500.0
1680230633.05391,0,187500.0,-187500.022352,-78890.973793,-100777.042005,-82926.938883,-80728.667167,187500.0,-187500.022352,-187500.022352,-187500.022352,187500.0,187500.0,-85351.924342,-84999.079704,187500.0,187500.0
1680230633.053932,0,187500.0,-187500.022352,-78713.188018,-100610.163881,-83477.082369,-80553.831822,187500.0,-187500.022352,-187500.022352,-187500.022352,187500.0,187500.0,-85223.558274,-84831.218103,187500.0,187500.0
1680230633.053951,0,187500.0,-187500.022352,-78907.648195,-100741.636841,-82956.577296,-80802.137351,187500.0,-187500.022352,-187500.022352,-187500.022352,187500.0,187500.0,-85234.220056,-84866.80208,187500.0,187500.0
1680230633.05397,0,187500.0,-187500.022352,-78774.476501,-100567.203828,-83228.665081,-80704.192007,187500.0,-187500.022352,-187500.022352,-187500.022352,187500.0,187500.0,-85305.320955,-84920.379212,187500.0,187500.0
1680230633.053989,0,187500.0,-187500.022352,-78789.005135,-100570.198962,-83326.073983,-80849.455994,187500.0,-187500.022352,-187500.022352,-187500.022352,187500.0,187500.0,-85129.300967,-84711.233939,187500.0,187500.0
1680230633.054008,0,187500.0,-187500.022352,-78874.724075,-100683.365844,-82934.8514,-81026.995901,187500.0,-187500.022352,-187500.022352,-187500.022352,187500.0,187500.0,-85350.717348,-84969.575401,187500.0,187500.0
1680230633.054029,0,187500.0,-187500.022352,-78768.910917,-100536.090199,-83567.741044,-80942.55101,187500.0,-187500.022352,-187500.022352,-187500.022352,187500.0,187500.0,-85261.377425,-84811.481513,187500.0,187500.0
1680230633.054048,0,187500.0,-187500.022352,-78979.821978,-100744.296699,-83065.854974,-81166.6496,187500.0,-187500.022352,-187500.022352,-187500.022352,187500.0,187500.0,-85326.845685,-84917.808761,187500.0,187500.0
1680230633.054067,0,187500.0,-187500.022352,-78870.767816,-100628.984049,-83335.059385,-80977.53149,187500.0,-187500.022352,-187500.022352,-187500.022352,187500.0,187500.0,-85426.556817,-85018.704536,187500.0,187500.0
1680230633.054086,0,187500.0,-187500.022352,-78914.197256,-100740.094571,-83454.216534,-80964.701589,187500.0,-187500.022352,-187500.022352,-187500.022352,187500.0,187500.0,-85311.177112,-84862.488194,187500.0,187500.0
1680230633.054128,0,187500.0,-187500.022352,-78911.269177,-100845.684212,-83056.355483,-80887.83394,187500.0,-187500.022352,-187500.022352,-187500.022352,187500.0,187500.0,-85430.401317,-85045.504277,187500.0,187500.0
1680230633.054148,0,187500.0,-187500.022352,-78750.560135,-100751.73983,-83609.918786,-80672.944268,187500.0,-187500.022352,-187500.022352,-187500.022352,187500.0,187500.0,-85259.633989,-84865.304514,187500.0,187500.0
1680230633.054167,0,187500.0,-187500.022352,-78914.264311,-100989.80826,-83082.954059,-80840.269427,187500.0,-187500.022352,-187500.022352,-187500.022352,187500.0,187500.0,-85286.903118,-84930.839828,187500.0,187500.0
1680230633.054186,0,187500.0,-187500.022352,-78852.349979,-100860.592825,-83324.554065,-80736.311464,187500.0,-187500.022352,-187500.022352,-187500.022352,187500.0,187500.0,-85342.402499,-84996.755123,187500.0,187500.0
1680230633.054206,0,187500.0,-187500.022352,-78816.296615,-100839.313965,-83466.957029,-80761.032493,187500.0,-187500.022352,-187500.022352,-187500.022352,187500.0,187500.0,-85177.625439,-84784.592364,187500.0,187500.0
1680230633.054224,0,187500.0,-187500.022352,-78926.021329,-100905.698646,-83032.461468,-80882.402466,187500.0,-187500.022352,-187500.022352,-187500.022352,187500.0,187500.0,-85362.474366,-84995.637536,187500.0,187500.0
1680230633.127795,0,187500.0,-187500.022352,-78772.308382,-100701.604867,-83571.049103,-80766.933354,187500.0,-187500.022352,-187500.022352,-187500.022352,187500.0,187500.0,-85243.294864,-84805.29008,187500.0,187500.0
1680230633.127837,0,187500.0,-187500.022352,-78930.379919,-100871.03109,-82998.9115,-81011.215569,187500.0,-187500.022352,-187500.022352,-187500.022352,187500.0,187500.0,-85279.616449,-84900.62027,187500.0,187500.0
1680230633.127858,0,187500.0,-187500.022352,-78884.178863,-100779.92538,-83150.188106,-80944.048577,187500.0,-187500.022352,-187500.022352,-187500.022352,187500.0,187500.0,-85356.059415,-85000.599623,187500.0,187500.0
1680230633.127877,0,187500.0,-187500.022352,-78866.856261,-100809.027351,-83230.117944,-80964.008685,187500.0,-187500.022352,-187500.022352,-187500.022352,187500.0,187500.0,-85216.919806,-84829.295853,187500.0,187500.0
1680230633.127963,0,187500.0,-187500.022352,-78955.168003,-100886.565553,-82720.341709,-81016.825857,187500.0,-187500.022352,-187500.022352,-187500.022352,187500.0,187500.0,-85372.91263,-85037.882333,187500.0,187500.0
1680230633.127985,0,187500.0,-187500.022352,-78833.127479,-100757.908911,-83227.078107,-80863.805814,187500.0,-187500.022352,-187500.022352,-187500.022352,187500.0,187500.0,-85296.80494,-84921.76502,187500.0,187500.0
1680230633.128004,0,187500.0,-187500.022352,-78959.10191,-100935.426466,-82627.537266,-80966.37797,187500.0,-187500.022352,-187500.022352,-187500.022352,187500.0,187500.0,-85340.815525,-84969.083663,187500.0,187500.0
1680230633.128024,0,187500.0,-187500.022352,-78851.053578,-100813.520052,-82782.546614,-80773.370656,187500.0,-187500.022352,-187500.022352,-187500.022352,187500.0,187500.0,-85368.643447,-85007.930995,187500.0,187500.0
1680230633.523492,0,187500.0,-187500.022352,-78839.542429,-100814.972915,-82875.954554,-80809.93811,187500.0,-187500.022352,-187500.022352,-187500.022352,187500.0,187500.0,-85200.558329,-84847.512525,187500.0,187500.0
1680230633.52355,0,187500.0,-187500.022352,-78939.007692,-100921.836605,-82386.227833,-80870.511338,187500.0,-187500.022352,-187500.022352,-187500.022352,187500.0,187500.0,-85371.124491,-85030.260388,187500.0,187500.0
1680230633.523591,0,187500.0,-187500.022352,-78813.949682,-100721.721437,-82936.796002,-80745.833307,187500.0,-187500.022352,-187500.022352,-187500.022352,187500.0,187500.0,-85287.104283,-84897.021639,187500.0,187500.0
1680230633.523623,0,187500.0,-187500.022352,-78946.137899,-100865.420802,-82398.007202,-80960.991199,187500.0,-187500.022352,-187500.022352,-187500.022352,187500.0,187500.0,-85273.894402,-84966.110881,187500.0,187500.0
1680230633.523644,0,187500.0,-187500.022352,-78882.748351,-100754.958481,-82587.572347,-80909.828056,187500.0,-187500.022352,-187500.022352,-187500.022352,187500.0,187500.0,-85368.509337,-85030.193332,187500.0,187500.0
1680230633.523666,0,187500.0,-187500.022352,-78891.599642,-100798.410272,-82747.163802,-80980.34781,187500.0,-187500.022352,-187500.022352,-187500.022352,187500.0,187500.0,-85253.10728,-84874.826357,187500.0,187500.0
1680230633.523688,0,187500.0,-187500.022352,-78992.897748,-100901.943553,-82259.404035,-81080.908308,187500.0,-187500.022352,-187500.022352,-187500.022352,187500.0,187500.0,-85397.231328,-85085.916231,187500.0,187500.0
1680230633.52377,0,187500.0,-187500.022352,-78849.488956,-100762.89335,-82849.981827,-80899.278033,187500.0,-187500.022352,-187500.022352,-187500.022352,187500.0,187500.0,-85317.592063,-84955.873782,187500.0,187500.0
1680230633.523791,0,187500.0,-187500.022352,-78984.918175,-100948.971623,-82332.270721,-81069.732436,187500.0,-187500.022352,-187500.022352,-187500.022352,187500.0,187500.0,-85287.037228,-84955.046768,187500.0,187500.0
1680230633.523819,0,187500.0,-187500.022352,-78948.015445,-100907.911468,-82502.009869,-80961.482938,187500.0,-187500.022352,-187500.022352,-187500.022352,187500.0,187500.0,-85437.375061,-85071.901688,187500.0,187500.0
1680230633.523842,0,187500.0,-187500.022352,-78899.221587,-100943.026059,-82683.32722,-80887.208091,187500.0,-187500.022352,-187500.022352,-187500.022352,187500.0,187500.0,-85275.079045,-84897.155749,187500.0,187500.0
1680230633.523865,0,187500.0,-187500.022352,-78934.962026,-101011.131824,-82200.66365,-80914.790143,187500.0,-187500.022352,-187500.022352,-187500.022352,187500.0,187500.0,-85383.730875,-85017.944576,187500.0,187500.0
1680230633.523885,0,187500.0,-187500.022352,-78806.797124,-100828.026334,-82795.085942,-80755.712778,187500.0,-187500.022352,-187500.022352,-187500.022352,187500.0,187500.0,-85267.792376,-84876.748607,187500.0,187500.0
1680230633.523906,0,187500.0,-187500.022352,-78911.671509,-100986.164926,-82308.600224,-80939.08649,187500.0,-187500.022352,-187500.022352,-187500.022352,187500.0,187500.0,-85239.942102,-84900.307345,187500.0,187500.0
1680230633.523926,0,187500.0,-187500.022352,-78888.604508,-100881.335244,-82469.979819,-80911.660899,187500.0,-187500.022352,-187500.022352,-187500.022352,187500.0,187500.0,-85351.142031,-84983.232317,187500.0,187500.0
1680230633.523947,0,187500.0,-187500.022352,-78840.749424,-100861.509247,-82688.646935,-80913.605501,187500.0,-187500.022352,-187500.022352,-187500.022352,187500.0,187500.0,-85211.309518,-84822.07624,187500.0,187500.0
1680230633.52397,0,187500.0,-187500.022352,-78951.748187,-100981.828687,-82191.745304,-81027.308825,187500.0,-187500.022352,-187500.022352,-187500.022352,187500.0,187500.0,-85344.816487,-85002.991259,187500.0,187500.0
1680230633.524022,0,187500.0,-187500.022352,-78824.902037,-100817.185738,-82806.597091,-80842.325788,187500.0,-187500.022352,-187500.022352,-187500.022352,187500.0,187500.0,-85269.938143,-84877.195642,187500.0,187500.0
1680230633.524042,0,187500.0,-187500.022352,-78938.024215,-100972.64212,-82329.43205,-80995.34583,187500.0,-187500.022352,-187500.022352,-187500.022352,187500.0,187500.0,-85251.028568,-84904.353011,187500.0,187500.0
1680230633.524063,0,187500.0,-187500.022352,-78890.124427,-100893.695759,-82501.24991,-80884.324716,187500.0,-187500.022352,-187500.022352,-187500.022352,187500.0,187500.0,-85339.630883,-84985.802768,187500.0,187500.0
1680230633.524084,0,187500.0,-187500.022352,-78896.405267,-100970.183429,-82715.044345,-80880.994306,187500.0,-187500.022352,-187500.022352,-187500.022352,187500.0,187500.0,-85228.542713,-84855.335636,187500.0,187500.0
1680230633.524107,0,187500.0,-187500.022352,-78956.598515,-101031.874243,-82218.522694,-80928.536466,187500.0,-187500.022352,-187500.022352,-187500.022352,187500.0,187500.0,-85349.018615,-85029.567484,187500.0,187500.0
1680230633.524128,0,187500.0,-187500.022352,-78850.248915,-100876.127288,-82822.958567,-80763.04415,187500.0,-187500.022352,-187500.022352,-187500.022352,187500.0,187500.0,-85295.709705,-84896.060514,187500.0,187500.0
1680230633.524149,0,187500.0,-187500.022352,-78918.980529,-100992.222249,-82344.318312,-80916.354765,187500.0,-187500.022352,-187500.022352,-187500.022352,187500.0,187500.0,-85227.313367,-84894.138264,187500.0,187500.0
1680230633.524169,0,187500.0,-187500.022352,-78917.259445,-100919.422617,-82481.155691,-80911.683251,187500.0,-187500.022352,-187500.022352,-187500.022352,187500.0,187500.0,-85340.74847,-84992.262422,187500.0,187500.0
1680230633.524192,0,187500.0,-187500.022352,-78846.069139,-100861.866875,-82724.655595,-80929.363481,187500.0,-187500.022352,-187500.022352,-187500.022352,187500.0,187500.0,-85229.459134,-84823.305586,187500.0,187500.0
1680230633.524216,0,187500.0,-187500.022352,-78918.421736,-100934.979431,-82196.841502,-81018.904569,187500.0,-187500.022352,-187500.022352,-187500.022352,187500.0,187500.0,-85323.090592,-84965.239163,187500.0,187500.0
1680230633.524237,0,187500.0,-187500.022352,-78790.99444,-100748.990565,-82807.021774,-80858.776672,187500.0,-187500.022352,-187500.022352,-187500.022352,187500.0,187500.0,-85258.784623,-84829.921702,187500.0,187500.0
1680230633.524336,0,187500.0,-187500.022352,-78878.702686,-100904.044617,-82325.900474,-81005.493522,187500.0,-187500.022352,-187500.022352,-187500.022352,187500.0,187500.0,-85210.929538,-84818.499961,187500.0,187500.0
1680230633.524354,0,187500.0,-187500.022352,-78856.216831,-100824.606517,-82464.503642,-80893.041896,187500.0,-187500.022352,-187500.022352,-187500.022352,187500.0,187500.0,-85326.309243,-84909.158636,187500.0,187500.0
1680230633.524371,0,187500.0,-187500.022352,-78785.47356,-100809.764959,-82739.988892,-80839.732985,187500.0,-187500.022352,-187500.022352,-187500.022352,187500.0,187500.0,-85150.401014,-84717.604186,187500.0,187500.0
1680230633.524389,0,187500.0,-187500.022352,-78889.990317,-100922.440102,-82195.41099,-80906.67646,187500.0,-187500.022352,-187500.022352,-187500.022352,187500.0,187500.0,-85289.093588,-84893.668877,187500.0,187500.0
1680230633.524406,0,187500.0,-187500.022352,-78761.713655,-100745.727211,-82840.392928,-80702.403868,187500.0,-187500.022352,-187500.022352,-187500.022352,187500.0,187500.0,-85228.095678,-84755.892725,187500.0,187500.0
1680230633.524423,0,187500.0,-187500.022352,-78838.022511,-100893.136965,-82386.361943,-80883.207128,187500.0,-187500.022352,-187500.022352,-187500.022352,187500.0,187500.0,-85148.210543,-84770.510765,187500.0,187500.0
1680230633.52444,0,187500.0,-187500.022352,-78836.189668,-100830.328563,-82507.798971,-80876.725123,187500.0,-187500.022352,-187500.022352,-187500.022352,187500.0,187500.0,-85315.982737,-84917.875817,187500.0,187500.0
1680230633.524457,0,187500.0,-187500.022352,-78768.843862,-100790.721272,-82811.983861,-80809.714593,187500.0,-187500.022352,-187500.022352,-187500.022352,187500.0,187500.0,-85177.938363,-84725.382593,187500.0,187500.0
1680230633.524479,0,187500.0,-187500.022352,-78881.675468,-100908.134986,-82245.478898,-80965.550955,187500.0,-187500.022352,-187500.022352,-187500.022352,187500.0,187500.0,-85291.619336,-84881.91186,187500.0,187500.0
1680230633.524496,0,187500.0,-187500.022352,-78778.030429,-100748.431772,-82882.816539,-80841.96816,187500.0,-187500.022352,-187500.022352,-187500.022352,187500.0,187500.0,-85224.251178,-84765.70514,187500.0,187500.0
1680230633.524513,0,187500.0,-187500.022352,-78859.949572,-100899.149585,-82421.588292,-80985.466359,187500.0,-187500.022352,-187500.022352,-187500.022352,187500.0,187500.0,-85202.279413,-84752.428204,187500.0,187500.0
1680230633.524554,0,187500.0,-187500.022352,-78876.422808,-100843.940776,-82507.329584,-80946.887248,187500.0,-187500.022352,-187500.022352,-187500.022352,187500.0,187500.0,-85354.673607,-84872.345313,187500.0,187500.0
1680230633.524572,0,187500.0,-187500.022352,-78813.145019,-100821.119645,-82815.113105,-80916.421821,187500.0,-187500.022352,-187500.022352,-187500.022352,187500.0,187500.0,-85186.633192,-84700.952137,187500.0,187500.0
1680230633.524592,0,187500.0,-187500.022352,-78912.900855,-100965.310748,-82217.069831,-80962.913449,187500.0,-187500.022352,-187500.022352,-187500.022352,187500.0,187500.0,-85331.919531,-84877.732084,187500.0,187500.0
1680230633.524609,0,187500.0,-187500.022352,-78803.2879,-100812.424816,-82852.865202,-80749.141365,187500.0,-187500.022352,-187500.022352,-187500.022352,187500.0,187500.0,-85282.8351,-84747.041434,187500.0,187500.0
1680230633.524626,0,187500.0,-187500.022352,-78862.184747,-100974.027929,-82386.384295,-80868.454977,187500.0,-187500.022352,-187500.022352,-187500.022352,187500.0,187500.0,-85229.190913,-84737.296073,187500.0,187500.0
1680230633.524644,0,187500.0,-187500.022352,-78854.875726,-100921.121349,-82461.307342,-80823.460916,187500.0,-187500.022352,-187500.022352,-187500.022352,187500.0,187500.0,-85339.921455,-84851.848763,187500.0,187500.0
1680230633.52466,0,187500.0,-187500.022352,-78769.648524,-100880.485878,-82808.519341,-80796.817636,187500.0,-187500.022352,-187500.022352,-187500.022352,187500.0,187500.0,-85181.73816,-84649.543124,187500.0,187500.0
1680230633.524678,0,187500.0,-187500.022352,-78915.113677,-101036.769275,-82189.599537,-80929.341129,187500.0,-187500.022352,-187500.022352,-187500.022352,187500.0,187500.0,-85337.663929,-84854.150993,187500.0,187500.0
1680230633.524695,0,187500.0,-187500.022352,-78815.670766,-100874.003872,-82819.27053,-80794.113075,187500.0,-187500.022352,-187500.022352,-187500.022352,187500.0,187500.0,-85293.206309,-84733.40687,187500.0,187500.0
1680230633.524712,0,187500.0,-187500.022352,-78876.668677,-100995.932638,-82359.316332,-80951.916391,187500.0,-187500.022352,-187500.022352,-187500.022352,187500.0,187500.0,-85249.64276,-84746.393233,187500.0,187500.0
1680230633.989453,0,187500.0,-187500.022352,-78872.623011,-100943.495446,-82430.663101,-80845.276218,187500.0,-187500.022352,-187500.022352,-187500.022352,187500.0,187500.0,-85407.267261,-84826.680699,187500.0,187500.0
1680230633.989498,0,187500.0,-187500.022352,-78800.359821,-100876.708433,-82799.444532,-80828.467706,187500.0,-187500.022352,-187500.022352,-187500.022352,187500.0,187500.0,-85200.200701,-84604.482008,187500.0,187500.0
1680230633.98953,0,187500.0,-187500.022352,-78945.221477,-101049.934453,-82157.390673,-81018.524589,187500.0,-187500.022352,-187500.022352,-187500.022352,187500.0,187500.0,-85407.647241,-84831.218103,187500.0,187500.0
1680230633.989563,0,187500.0,-187500.022352,-78831.026415,-100910.75014,-82809.882797,-80792.973136,187500.0,-187500.022352,-187500.022352,-187500.022352,187500.0,187500.0,-85347.677511,-84732.736317,187500.0,187500.0
1680230633.989596,0,187500.0,-187500.022352,-78886.257575,-101021.659496,-82337.724547,-80969.618972,187500.0,-187500.022352,-187500.022352,-187500.022352,187500.0,187500.0,-85270.049902,-84653.365273,187500.0,187500.0
1680230633.989616,0,187500.0,-187500.022352,-78904.586006,-101006.840289,-82381.869242,-80893.265413,187500.0,-187500.022352,-187500.022352,-187500.022352,187500.0,187500.0,-85405.121494,-84790.984963,187500.0,187500.0
1680230633.989636,0,187500.0,-187500.022352,-78823.225656,-100971.122202,-82758.563192,-80830.94875,187500.0,-187500.022352,-187500.022352,-187500.022352,187500.0,187500.0,-85207.10739,-84555.464632,187500.0,187500.0
1680230633.989656,0,187500.0,-187500.022352,-78940.25939,-101120.11893,-82124.667719,-80951.871687,187500.0,-187500.022352,-187500.022352,-187500.022352,187500.0,187500.0,-85383.082674,-84759.491355,187500.0,187500.0
1680230633.989682,0,187500.0,-187500.022352,-78825.796107,-100960.192199,-82805.010117,-80791.833197,187500.0,-187500.022352,-187500.022352,-187500.022352,187500.0,187500.0,-85293.921565,-84600.212824,187500.0,187500.0
1680230633.989702,0,187500.0,-187500.022352,-78885.698782,-101083.171497,-82381.377504,-80963.584001,187500.0,-187500.022352,-187500.022352,-187500.022352,187500.0,187500.0,-85264.394911,-84626.274958,187500.0,187500.0
1680230633.989722,0,187500.0,-187500.022352,-78905.971814,-101047.252243,-82418.414345,-80875.40637,187500.0,-187500.022352,-187500.022352,-187500.022352,187500.0,187500.0,-85403.847445,-84745.856791,187500.0,187500.0
1680230633.989794,0,187500.0,-187500.022352,-78802.01385,-100986.85783,-82833.933274,-80770.442578,187500.0,-187500.022352,-187500.022352,-187500.022352,187500.0,187500.0,-85200.06659,-84518.427791,187500.0,187500.0
1680230633.989817,0,187500.0,-187500.022352,-78974.614021,-101160.195608,-82156.96599,-80974.514005,187500.0,-187500.022352,-187500.022352,-187500.022352,187500.0,187500.0,-85357.109947,-84738.011329,187500.0,187500.0
1680230633.989837,0,187500.0,-187500.022352,-78880.759046,-101042.84895,-82802.931404,-80791.632031,187500.0,-187500.022352,-187500.022352,-187500.022352,187500.0,187500.0,-85346.045833,-84685.708247,187500.0,187500.0
1680230633.989856,0,187500.0,-187500.022352,-78910.866846,-101121.236518,-82362.758501,-80955.380911,187500.0,-187500.022352,-187500.022352,-187500.022352,187500.0,187500.0,-85248.391062,-84631.974653,187500.0,187500.0
1680230633.989876,3,187500.0,-187500.022352,-78943.768614,-101113.860442,-82348.229867,-80935.219638,187500.0,-187500.022352,-187500.022352,-187500.022352,187500.0,187500.0,-85422.958186,-84754.462213,187500.0,187500.0
1680230633.989896,3,187500.0,-187500.022352,-78831.47345,-101050.806171,-82752.639979,-80926.27894,187500.0,-187500.022352,-187500.022352,-187500.022352,187500.0,187500.0,-85217.076268,-84503.206253,187500.0,187500.0
1680230633.989916,3,187500.0,-187500.022352,-78978.346762,-101214.867975,-82035.193686,-81114.771201,187500.0,-187500.022352,-187500.022352,-187500.022352,187500.0,187500.0,-85397.119569,-84730.188218,187500.0,187500.0
1680230633.989935,3,187500.0,-187500.022352,-78855.05454,-101082.880924,-82690.703296,-80898.316908,187500.0,-187500.022352,-187500.022352,-187500.022352,187500.0,187500.0,-85332.634787,-84610.360516,187500.0,187500.0
1680230633.989954,3,187500.0,-187500.022352,-78883.910642,-101165.8506,-82244.897752,-81035.467212,187500.0,-187500.022352,-187500.022352,-187500.022352,187500.0,187500.0,-85236.701099,-84535.281007,187500.0,187500.0
1680230633.989974,3,187500.0,-187500.022352,-78933.777384,-101180.647454,-82187.274955,-80964.656885,187500.0,-187500.022352,-187500.022352,-187500.022352,187500.0,187500.0,-85392.045723,-84711.725677,187500.0,187500.0
1680230633.990021,3,187500.0,-187500.022352,-78805.120743,-101066.318281,-82624.139801,-80872.992381,187500.0,-187500.022352,-187500.022352,-187500.022352,187500.0,187500.0,-85226.620463,-84467.957552,187500.0,187500.0
1680230633.990041,3,187500.0,-187500.022352,-78941.578143,-101221.506443,-81869.522556,-81014.009537,187500.0,-187500.022352,-187500.022352,-187500.022352,187500.0,187500.0,-85404.182721,-84746.125012,187500.0,187500.0
1680230633.990061,3,187500.0,-187500.022352,-78804.763115,-101109.747721,-82491.504549,-80731.103507,187500.0,-187500.022352,-187500.022352,-187500.022352,187500.0,187500.0,-85323.828199,-84576.45292,187500.0,187500.0
1680230633.990083,3,187500.0,-187500.022352,-78864.218755,-101192.359768,-81989.37261,-80908.241082,187500.0,-187500.022352,-187500.022352,-187500.022352,187500.0,187500.0,-85206.749762,-84534.051661,187500.0,187500.0
1680230633.990102,3,187500.0,-187500.022352,-78894.035982,-101214.443292,-81907.162894,-80827.059546,187500.0,-187500.022352,-187500.022352,-187500.022352,187500.0,187500.0,-85441.174858,-84719.101753,187500.0,187500.0
1680230633.990122,3,187500.0,-187500.022352,-78814.709641,-101121.817663,-82379.097626,-80806.831218,187500.0,-187500.022352,-187500.022352,-187500.022352,187500.0,187500.0,-85254.604847,-84513.331594,187500.0,187500.0
1680230633.990142,3,187500.0,-187500.022352,-78974.077579,-101212.901022,-81605.548454,-81032.181505,187500.0,-187500.022352,-187500.022352,-187500.022352,187500.0,187500.0,-85387.687133,-84742.682844,187500.0,187500.0
1680230633.990162,3,187500.0,-187500.022352,-78872.108921,-101104.986799,-82267.875346,-80843.823355,187500.0,-187500.022352,-187500.022352,-187500.022352,187500.0,187500.0,-85362.340255,-84628.308967,187500.0,187500.0
1680230633.990181,3,187500.0,-187500.022352,-78935.096137,-101134.669916,-81807.42941,-81062.915154,187500.0,-187500.022352,-187500.022352,-187500.022352,187500.0,187500.0,-85295.933222,-84581.929097,187500.0,187500.0
1680230633.9902,3,187500.0,-187500.022352,-78991.623699,-101157.647509,-81696.095371,-80994.787037,187500.0,-187500.022352,-187500.022352,-187500.022352,187500.0,187500.0,-85457.692797,-84785.911117,187500.0,187500.0
1680230633.990221,3,187500.0,-187500.022352,-78889.856206,-101075.124869,-82167.158385,-80927.30712,187500.0,-187500.022352,-187500.022352,-185926.325432,187500.0,187500.0,-85291.485225,-84533.135239,187500.0,187500.0
1680230633.990265,3,187500.0,-187500.022352,-79051.548726,-101162.363727,-81365.267201,-81092.955898,187500.0,-187500.022352,-187500.022352,-184753.372938,187500.0,187500.0,-85484.626649,-84803.121961,187500.0,187500.0
1680230633.990284,3,187500.0,-187500.022352,-78946.54023,-101101.566982,-82061.725207,-80842.437547,187500.0,-187500.022352,-187500.022352,-183161.392291,187500.0,187500.0,-85436.45864,-84698.627555,187500.0,187500.0
1680230633.990304,3,187500.0,-187500.022352,-78990.304946,-101081.137488,-81680.404446,-80990.696668,187500.0,-187500.022352,-187500.022352,-181063.099928,187500.0,187500.0,-85345.799964,-84652.04652,187500.0,187500.0
1680230633.990323,3,187500.0,-187500.022352,-79025.687757,-101057.444639,-81599.625242,-80893.399524,187500.0,-187500.022352,-187500.022352,-180375.157937,187500.0,187500.0,-85535.387461,-84840.807002,187500.0,187500.0
1680230633.990344,3,187500.0,-187500.022352,-78923.182657,-100924.004725,-82159.290571,-80809.848703,187500.0,-187500.022352,-187500.022352,-178390.881823,187500.0,187500.0,-85351.946694,-84636.824982,187500.0,187500.0
1680230633.990364,3,187500.0,-187500.022352,-79048.866516,-100929.436198,-81406.617928,-80974.58106,187500.0,-187500.022352,-187500.022352,-177550.545639,187500.0,187500.0,-85481.05037,-84873.865232,187500.0,187500.0
1680230633.990384,3,187500.0,-187500.022352,-78959.817166,-100834.061305,-82146.751242,-80774.532947,187500.0,-187500.022352,-187500.022352,-176557.211764,187500.0,187500.0,-85416.632642,-84791.521405,187500.0,187500.0
1680230633.990403,3,187500.0,-187500.022352,-78969.406065,-100825.098255,-81798.488712,-80965.193327,187500.0,-187500.022352,-187500.022352,-174998.781085,187500.0,187500.0,-85354.405386,-84771.181318,187500.0,187500.0
1680230633.990424,3,187500.0,-187500.022352,-79036.461298,-100810.144938,-81692.362629,-80981.37599,187500.0,-187500.022352,-187500.022352,-174734.739928,187500.0,187500.0,-85478.301105,-84929.074041,187500.0,187500.0
1680230633.990444,3,187500.0,-187500.022352,-78967.595573,-100770.202371,-82232.224313,-80960.991199,187500.0,-187500.022352,-187500.022352,-172365.00798,187500.0,187500.0,-85388.916479,-84774.66819,187500.0,187500.0
1680230633.990487,3,187500.0,-187500.022352,-79126.918808,-100842.912596,-81392.961012,-81169.711789,187500.0,-187500.022352,-187500.022352,-170510.908426,187500.0,187500.0,-85509.459437,-84988.954364,187500.0,187500.0
1680230633.990507,3,187500.0,-187500.022352,-79095.000517,-100795.281028,-82056.070215,-80990.383743,187500.0,-187500.022352,-187500.022352,-168067.192205,187500.0,187500.0,-85539.053147,-84947.402471,187500.0,187500.0
1680230633.990526,3,187500.0,-187500.022352,-79099.180293,-100826.260546,-81654.789347,-81153.886754,187500.0,-187500.022352,-187500.022352,-164936.65158,187500.0,187500.0,-85433.12823,-84887.410389,187500.0,187500.0
1680230633.990546,3,187500.0,-187500.022352,-79190.911852,-100854.75902,-81457.423443,-81147.360044,187500.0,-187500.022352,-187500.022352,-163423.706701,187500.0,187500.0,-85645.045119,-85082.18349,187500.0,187500.0
1680230633.990566,3,187500.0,-187500.022352,-79119.498029,-100822.572508,-81993.887662,-81028.851095,187500.0,-187500.022352,-187500.022352,-160107.356025,187500.0,187500.0,-85525.597397,-84925.140134,187500.0,187500.0
1680230633.990585,3,187500.0,-187500.022352,-79240.197449,-100915.555765,-81153.730292,-81179.501853,187500.0,-187500.022352,-187500.022352,-158087.361823,187500.0,187500.0,-85665.899297,-85100.333107,187500.0,187500.0
1680230633.990605,3,187500.0,-187500.022352,-79159.820576,-100828.49572,-81817.219474,-80953.503365,187500.0,-187500.022352,-187500.022352,-156339.544814,187500.0,187500.0,-85593.881976,-85010.054411,187500.0,187500.0
1680230633.990624,3,187500.0,-187500.022352,-79184.765123,-100799.974895,-81437.485687,-81099.661422,187500.0,-187500.022352,-187500.022352,-154150.683183,187500.0,187500.0,-85505.480827,-84963.629837,187500.0,187500.0
1680230633.990644,3,187500.0,-187500.022352,-79227.568713,-100712.53487,-81265.109034,-81039.401119,187500.0,-187500.022352,-187500.022352,-153896.007406,187500.0,187500.0,-85628.728345,-85143.091994,187500.0,187500.0
1680230633.990664,3,187500.0,-187500.022352,-79111.518456,-100591.276657,-81879.379675,-80949.34594,187500.0,-187500.022352,-187500.022352,-152037.973945,187500.0,187500.0,-85435.832791,-84916.713526,187500.0,187500.0
1680230633.990683,3,187500.0,-187500.022352,-79250.166327,-100628.112331,-81059.338875,-81174.159786,187500.0,-187500.022352,-187500.022352,-151305.574334,187500.0,187500.0,-85535.968606,-85132.54197,187500.0,187500.0
1680230633.990726,3,187500.0,-187500.022352,-79205.842818,-100529.250566,-81747.996121,-81022.793773,187500.0,-187500.022352,-187500.022352,-149993.526935,187500.0,187500.0,-85518.221321,-85080.171833,187500.0,187500.0
1680230633.990746,3,187500.0,-187500.022352,-79250.523955,-100555.871493,-81400.292385,-81221.813705,187500.0,-187500.022352,-187500.022352,-147281.433318,187500.0,187500.0,-85441.152506,-85035.133068,187500.0,187500.0
1680230633.990765,3,187500.0,-187500.022352,-79315.276958,-100537.855987,-81190.856539,-81171.38817,187500.0,-187500.022352,-187500.022352,-145828.45817,187500.0,187500.0,-85647.347349,-85245.887666,187500.0,187500.0
1680230633.990787,3,187500.0,-187500.022352,-79252.781481,-100473.035928,-81775.645229,-81107.886864,187500.0,-187500.022352,-187500.022352,-142520.422342,187500.0,187500.0,-85478.010533,-85027.131143,187500.0,187500.0
1680230633.990807,3,187500.0,-187500.022352,-79381.527529,-100523.550871,-80911.392678,-81238.219886,187500.0,-187500.022352,-187500.022352,-140523.785713,187500.0,187500.0,-85556.733377,-85199.619555,187500.0,187500.0
1680230633.990826,3,187500.0,-187500.022352,-79378.867671,-100470.174905,-81512.207569,-81031.98034,187500.0,-187500.022352,-187500.022352,-138501.042247,187500.0,187500.0,-85554.028816,-85129.725651,187500.0,187500.0
1680230633.990846,3,187500.0,-187500.022352,-79489.575862,-100541.208749,-81143.739062,-81188.733123,187500.0,-187500.022352,-187500.022352,-135801.689124,187500.0,187500.0,-85446.561628,-85065.39733,187500.0,187500.0
1680230634.469899,3,187500.0,-187500.022352,-79654.375274,-100564.163991,-80874.981686,-81140.922742,187500.0,-187500.022352,-187500.022352,-134796.419417,187500.0,187500.0,-85620.547607,-85272.665056,187500.0,187500.0
1680230634.469975,3,187500.0,-187500.022352,-79584.570776,-100424.711457,-81485.385476,-80978.894946,187500.0,-187500.022352,-187500.022352,-132058.844812,187500.0,187500.0,-85408.854235,-85005.494655,187500.0,187500.0
1680230634.470008,3,187500.0,-187500.022352,-79823.46622,-100373.682424,-80596.34484,-81224.607673,187500.0,-187500.022352,-187500.022352,-130228.147534,187500.0,187500.0,-85530.492429,-85193.070494,187500.0,187500.0
1680230634.47011,3,187500.0,-187500.022352,-79820.292273,-100246.232777,-81174.942097,-81038.082366,187500.0,-187500.022352,-187500.022352,-127852.291209,187500.0,187500.0,-85589.143406,-85205.676878,187500.0,187500.0
1680230634.470128,3,187500.0,-187500.022352,-79843.783956,-100152.310747,-80835.799078,-81125.880018,187500.0,-187500.022352,-187500.022352,-124345.883649,187500.0,187500.0,-85501.68103,-85123.109534,187500.0,187500.0
1680230634.470145,3,187500.0,-187500.022352,-79917.76823,-100016.568603,-80526.115659,-81117.989852,187500.0,-187500.022352,-187500.022352,-122615.74687,187500.0,187500.0,-85652.801174,-85311.780609,187500.0,187500.0
1680230634.470165,3,187500.0,-187500.022352,-79814.123191,-99811.938383,-81066.469081,-81058.131881,187500.0,-187500.022352,-187500.022352,-119142.308133,187500.0,187500.0,-85545.356339,-85147.517639,187500.0,187500.0
1680230634.470183,3,187500.0,-187500.022352,-79899.752724,-99617.589965,-80184.40219,-81211.733068,187500.0,-187500.022352,-187500.022352,-116787.842427,187500.0,187500.0,-85568.378635,-85235.851733,187500.0,187500.0
1680230634.4702,3,187500.0,-187500.022352,-79842.17463,-99377.196953,-80683.33783,-81065.351494,187500.0,-187500.022352,-187500.022352,-114518.55922,187500.0,187500.0,-85614.534988,-85219.736125,187500.0,187500.0
1680230634.470218,3,187500.0,-187500.022352,-79836.206715,-99207.100178,-80317.417421,-81134.306626,187500.0,-187500.022352,-187500.022352,-111410.169173,187500.0,187500.0,-85516.991975,-85115.420534,187500.0,187500.0
1680230634.470235,3,187500.0,-187500.022352,-79843.113404,-99030.476693,-79975.815711,-81106.992794,187500.0,-187500.022352,-187500.022352,-110185.114763,187500.0,187500.0,-85613.126828,-85240.277379,187500.0,187500.0
1680230634.470253,3,187500.0,-187500.022352,-79720.31292,-98867.085441,-80548.087424,-81036.294226,187500.0,-187500.022352,-187500.022352,-107397.405195,187500.0,187500.0,-85465.761777,-85074.427435,187500.0,187500.0
1680230634.470276,3,187500.0,-187500.022352,-79745.458632,-98794.062292,-79753.818185,-81159.497042,187500.0,-187500.022352,-187500.022352,-105857.682926,187500.0,187500.0,-85522.088173,-85188.443683,187500.0,187500.0
1680230634.470293,3,187500.0,-187500.022352,-79610.610558,-98631.296889,-80339.322131,-80979.118464,187500.0,-187500.022352,-187500.022352,-104583.879362,187500.0,187500.0,-85500.116408,-85151.473898,187500.0,187500.0
1680230634.470336,3,187500.0,-187500.022352,-79573.260793,-98562.699385,-80173.360428,-81024.201932,187500.0,-187500.022352,-187500.022352,-102457.423801,187500.0,187500.0,-85371.795043,-85060.234077,187500.0,187500.0
1680230634.470354,3,187500.0,-187500.022352,-79568.723389,-98466.005738,-79961.130614,-80976.100978,187500.0,-187500.022352,-187500.022352,-102360.819562,187500.0,187500.0,-85482.212661,-85192.332887,187500.0,187500.0
1680230634.470594,3,187500.0,-187500.022352,-79459.021027,-98352.771801,-80576.720008,-80945.50144,187500.0,-187500.022352,-187500.022352,-100557.480819,187500.0,187500.0,-85343.587141,-85023.018422,187500.0,187500.0
1680230634.470614,3,187500.0,-187500.022352,-79532.938246,-98320.205309,-79818.772354,-81093.224119,187500.0,-187500.022352,-187366.381272,-99846.270662,187500.0,187500.0,-85386.435436,-85137.034671,187500.0,187500.0
1680230634.470631,3,187500.0,-187500.022352,-79469.839271,-98195.147299,-80301.815903,-81039.267008,187500.0,-187500.022352,-187050.193495,-99063.892551,187500.0,187500.0,-85423.092296,-85129.099802,187500.0,187500.0
1680230634.470648,3,187500.0,-187500.022352,-79437.295131,-98197.963619,-80138.134079,-81103.416515,187500.0,-187500.022352,-186577.789376,-96902.70238,187500.0,187500.0,-85304.672754,-85038.932865,187500.0,187500.0
1680230634.470666,3,187500.0,-187500.022352,-79478.176472,-98142.6207,-79925.412527,-81059.27182,187500.0,-187500.022352,-186559.528,-96794.117605,187500.0,187500.0,-85419.650128,-85176.574907,187500.0,187500.0
1680230634.470684,3,187500.0,-187500.022352,-79307.09622,-98065.551885,-80656.336922,-80878.848538,187500.0,-187500.022352,-186270.810517,-94926.361135,187500.0,187500.0,-85326.689223,-85015.217664,187500.0,187500.0
1680230634.470701,3,187500.0,-187500.022352,-79343.171935,-98084.70733,-80090.971898,-80995.502293,187500.0,-187500.022352,-186389.587687,-94434.466295,187500.0,187500.0,-85317.010917,-85109.09499,187500.0,187500.0
1680230634.470718,3,187500.0,-187500.022352,-79272.942754,-97977.642474,-80667.691608,-80919.10403,187500.0,-187500.022352,-186607.561899,-94214.167501,187500.0,187500.0,-85281.069312,-85044.409042,187500.0,187500.0
1680230634.470735,3,187500.0,-187500.022352,-79164.447387,-98026.168111,-80683.740161,-80907.749344,187500.0,-187500.022352,-186498.775959,-92670.31016,187500.0,187500.0,-85179.212413,-84995.861053,187500.0,187500.0
1680230634.470796,3,187500.0,-187500.022352,-79189.973079,-97983.699797,-80552.691883,-80890.113817,187500.0,-187500.022352,-187069.281884,-93259.077461,187500.0,187500.0,-85236.477582,-85059.362359,187500.0,187500.0
1680230634.470813,3,187500.0,-187500.022352,-79103.807104,-97947.579378,-81215.354051,-80793.397819,187500.0,-187500.022352,-187007.993401,-91680.060825,187500.0,187500.0,-85199.574852,-84968.994256,187500.0,187500.0
1680230634.47083,3,187500.0,-187500.022352,-79155.573744,-98048.296338,-80641.875344,-80913.203169,187500.0,-187500.022352,-187314.122893,-91199.878299,187500.0,187500.0,-85230.062631,-85063.139804,187500.0,187500.0
1680230634.47086,3,187500.0,-187500.022352,-79138.497011,-97997.334361,-81193.04701,-80914.186646,187500.0,-187500.022352,-187500.022352,-91086.532603,187500.0,187500.0,-85274.810824,-85086.966763,187500.0,187500.0
1680230634.470877,3,187500.0,-187500.022352,-79051.302856,-98070.312806,-81157.150108,-80889.800893,187500.0,-187500.022352,-187500.022352,-89599.493396,187500.0,187500.0,-85190.589451,-85020.067992,187500.0,187500.0
1680230634.470895,3,187500.0,-187500.022352,-79088.831435,-98049.704498,-80957.996065,-80918.433478,187500.0,-187500.022352,-187500.022352,-90434.912197,187500.0,187500.0,-85209.67784,-85068.258353,187500.0,187500.0
1680230634.470912,3,187500.0,-187500.022352,-79065.3174,-97989.600657,-81509.055973,-80891.611384,187500.0,-187500.022352,-187500.022352,-89096.087408,187500.0,187500.0,-85194.612765,-85018.190446,187500.0,187500.0
1680230634.470928,3,187500.0,-187500.022352,-79157.116015,-98067.049452,-80896.484065,-80918.411126,187500.0,-187500.022352,-187500.022352,-88560.047872,187500.0,187500.0,-85240.612655,-85127.110496,187500.0,187500.0
1680230634.470945,3,187500.0,-187500.022352,-79190.531873,-97957.749421,-81294.479226,-80881.530748,187500.0,-187500.022352,-187500.022352,-87823.91552,187500.0,187500.0,-85316.563882,-85135.961787,187500.0,187500.0
1680230634.470962,3,187500.0,-187500.022352,-79187.872015,-98025.586966,-81194.611632,-80882.558928,187500.0,-187500.022352,-187500.022352,-85063.944467,187500.0,187500.0,-85314.842798,-85149.059909,187500.0,187500.0
1680230634.471002,3,187500.0,-187500.022352,-79246.478289,-98001.983524,-80955.917353,-80930.659882,187500.0,-187500.022352,-187500.022352,-84931.465677,187500.0,187500.0,-85326.644519,-85188.063704,187500.0,187500.0
1680230634.471019,3,187500.0,-187500.022352,-79275.624964,-97946.417087,-81465.850051,-80930.771641,187500.0,-187500.022352,-187500.022352,-82866.052731,187500.0,187500.0,-85404.473293,-85199.574852,187500.0,187500.0
1680230634.471036,3,187500.0,-187500.022352,-79244.287818,-98057.840533,-80925.116649,-80858.62021,187500.0,-187500.022352,-187500.022352,-82260.611029,187500.0,187500.0,-85372.309133,-85234.01889,187500.0,187500.0
1680230634.471053,3,187500.0,-187500.022352,-79271.780464,-97917.315116,-81311.779477,-80856.541497,187500.0,-187500.022352,-187500.022352,-82472.483214,187500.0,187500.0,-85400.829959,-85204.536939,187500.0,187500.0
1680230634.471069,3,187500.0,-187500.022352,-79234.475402,-97991.165279,-81237.906961,-80845.410329,187500.0,-187500.022352,-187500.022352,-80882.290707,187500.0,187500.0,-85382.501529,-85229.436783,187500.0,187500.0
1680230634.471087,3,187500.0,-187500.022352,-79258.525879,-97975.16143,-80973.709342,-80842.839878,187500.0,-187500.022352,-187500.022352,-82151.154536,187500.0,187500.0,-85375.773653,-85288.46774,187500.0,187500.0
1680230634.471104,3,187500.0,-187500.022352,-79237.872867,-97905.155767,-81448.259228,-80769.749674,187500.0,-187500.022352,-187500.022352,-81120.180323,187500.0,187500.0,-85397.879529,-85264.305504,187500.0,187500.0
1680230634.47112,3,187500.0,-187500.022352,-79200.858379,-98056.38767,-80885.755227,-80734.433917,187500.0,-187500.022352,-187500.022352,-81201.160693,187500.0,187500.0,-85335.965197,-85265.557202,187500.0,187500.0
1680230634.471137,3,187500.0,-187500.022352,-79256.246001,-97923.931232,-81226.865199,-80780.657325,187500.0,-187500.022352,-187500.022352,-81865.611001,187500.0,187500.0,-85375.080749,-85244.233637,187500.0,187500.0
1680230634.471154,3,187500.0,-187500.022352,-79187.514387,-98004.330457,-81164.615591,-80696.771228,187500.0,-187500.022352,-187500.022352,-80275.284383,187500.0,187500.0,-85354.450089,-85234.510629,187500.0,187500.0
1680230634.471172,3,187500.0,-187500.022352,-79226.339367,-97973.976788,-80901.870835,-80735.082118,187500.0,-187500.022352,-187500.022352,-81629.867152,187500.0,187500.0,-85330.489019,-85215.444591,187500.0,187500.0
1680230634.471209,3,187500.0,-187500.022352,-79231.837896,-97920.913746,-81411.915292,-80704.370821,187500.0,-187500.022352,-187500.022352,-80278.100703,187500.0,187500.0,-85397.007811,-85228.073326,187500.0,187500.0
1680230634.471226,3,187500.0,-187500.022352,-79178.394875,-98115.373923,-80898.048687,-80623.591617,187500.0,-187500.022352,-187500.022352,-79853.596372,187500.0,187500.0,-85325.951615,-85232.208399,187500.0,187500.0
1680230634.471243,3,187500.0,-187500.022352,-79219.723251,-97991.522907,-81217.790391,-80632.755832,187500.0,-187500.022352,-187500.022352,-80220.947292,187500.0,187500.0,-85357.489927,-85211.108352,187500.0,187500.0
1680230634.47126,3,187500.0,-187500.022352,-79175.645611,-98203.082168,-81140.855687,-80599.362326,187500.0,-187500.022352,-187500.022352,-78144.626694,187500.0,187500.0,-85356.618208,-85235.42705,187500.0,187500.0
1680230634.471277,3,187500.0,-187500.022352,-79210.447277,-98290.321027,-80813.536741,-80614.963843,187500.0,-187500.022352,-187500.022352,-79092.340659,187500.0,187500.0,-85331.338386,-85262.539716,187500.0,187500.0
1680230634.471294,3,187500.0,-187500.022352,-79205.015803,-98337.885539,-81298.815465,-80612.572207,187500.0,-187500.022352,-187500.022352,-77272.483977,187500.0,187500.0,-85367.414101,-85237.595169,187500.0,187500.0
1680230634.471311,3,187500.0,-187500.022352,-79145.917791,-98660.91295,-80731.081156,-80631.772355,187500.0,-187500.022352,-187500.022352,-76678.419313,187500.0,187500.0,-85296.335554,-85293.586289,187500.0,187500.0
1680230634.47133,3,187500.0,-187500.022352,-79177.545509,-98609.794511,-81025.163057,-80634.298102,187500.0,-187500.022352,-187500.022352,-77145.727235,187500.0,187500.0,-85336.121659,-85284.042094,187500.0,187500.0
1680230634.471348,3,187500.0,-187477.06711,-79141.581552,-98858.636482,-80975.653943,-80534.58697,187500.0,-187500.022352,-187500.022352,-74880.556748,187500.0,187500.0,-85354.159517,-85317.726173,187500.0,187500.0
1680230634.471365,3,187500.0,-187500.022352,-79118.156924,-98935.660593,-80625.670329,-80529.937807,187500.0,-187500.022352,-187500.022352,-76262.140425,187500.0,187500.0,-85289.428865,-85293.742751,187500.0,187500.0
1680230634.471402,3,187500.0,-187230.013279,-79201.439524,-98971.915122,-81053.102738,-80623.63632,187500.0,-187500.022352,-187288.127814,-74819.782355,187500.0,187500.0,-85383.641468,-85290.01001,187500.0,187500.0
1680230634.471419,3,187500.0,-187500.022352,-79113.396002,-99243.064134,-80464.402493,-80585.280727,187500.0,-187500.022352,-187021.247986,-74435.421757,187500.0,187500.0,-85355.74649,-85346.291703,187500.0,187500.0
1680230634.471436,3,187500.0,-187245.167761,-79171.711704,-99123.750523,-80733.673958,-80674.084207,187500.0,-187500.022352,-187284.551535,-75302.781201,187500.0,187500.0,-85376.734778,-85282.991562,187500.0,187500.0
1680230634.471453,3,187500.0,-187030.725125,-79128.572837,-99377.599284,-80678.487501,-80686.93646,187500.0,-187500.022352,-186043.739145,-72989.643871,187500.0,187500.0,-85437.509172,-85343.810659,187500.0,187500.0
1680230634.844954,3,187500.0,-187500.022352,-79101.974261,-99430.550567,-80355.795366,-80664.070626,187500.0,-187500.022352,-186581.455062,-74507.126153,187500.0,187500.0,-85372.555002,-85319.60372,187500.0,187500.0
1680230634.845002,3,187500.0,-186334.423582,-79128.885761,-99377.062842,-80887.923347,-80679.11335,187500.0,-187500.022352,-185886.919306,-73026.479545,187500.0,187500.0,-85436.548047,-85263.076158,187500.0,187500.0
1680230634.845034,3,187500.0,-187500.022352,-79024.167839,-99575.881609,-80288.114284,-80620.596483,187500.0,-187500.022352,-185449.026281,-72478.682992,187500.0,187500.0,-85377.695904,-85324.677566,187500.0,187500.0
1680230634.845056,3,187500.0,-186804.547823,-79106.466962,-99403.706122,-80557.162232,-80700.906301,187500.0,-187500.022352,-185925.498417,-73430.800251,187500.0,187500.0,-85377.450034,-85254.336626,187500.0,187500.0
1680230634.845076,3,187500.0,-186541.378384,-79086.372743,-99573.244104,-80514.537455,-80674.24067,187500.0,-187500.022352,-184736.139743,-70979.976175,187500.0,187500.0,-85452.574247,-85330.287854,187500.0,187500.0
1680230634.845098,3,187500.0,-187500.022352,-79019.250455,-99503.193736,-80159.457643,-80563.688941,187500.0,-187500.022352,-185326.672831,-72701.865161,187500.0,187500.0,-85351.633769,-85297.497844,187500.0,187500.0
1680230634.845119,3,187500.0,-185445.472353,-79095.827531,-99391.010331,-80686.712943,-80648.580867,187500.0,-187500.022352,-184749.729603,-71410.671939,187500.0,187500.0,-85423.472276,-85241.439669,187500.0,187500.0
1680230634.845208,3,187500.0,-187361.955626,-79011.583806,-99585.403453,-80091.061305,-80594.467294,187500.0,-187500.022352,-184279.203031,-70944.638067,187500.0,187500.0,-85403.445113,-85346.582275,187500.0,187500.0
1680230634.84523,3,187500.0,-186496.540784,-79086.037467,-99359.248502,-80422.671786,-80637.740271,187500.0,-187500.022352,-184792.801415,-72309.457935,187500.0,187500.0,-85395.84552,-85268.082949,187500.0,187500.0
1680230634.845251,3,187500.0,-186015.240671,-79041.378682,-99517.856481,-80462.368484,-80628.978387,187500.0,-187500.022352,-183725.706783,-69969.498511,187500.0,187500.0,-85436.97273,-85302.772856,187500.0,187500.0
1680230634.845273,3,187500.0,-187500.022352,-78991.869568,-99527.177158,-80005.029441,-80561.185546,187500.0,-187500.022352,-184354.461355,-72147.452491,187500.0,187500.0,-85345.040005,-85305.320955,187500.0,187500.0
1680230634.845294,3,187500.0,-183502.703429,-79130.048052,-98937.336974,-81268.394741,-80578.351686,187500.0,-187500.022352,-184048.577732,-70700.244093,187500.0,187500.0,-85420.18657,-85139.493363,187500.0,187500.0
1680230634.845316,3,187500.0,-186767.35452,-78869.449063,-100046.966976,-79719.172981,-80555.351741,187500.0,-187500.022352,-184041.402822,-68063.229986,187500.0,187500.0,-85321.503618,-85364.262505,187500.0,187500.0
1680230634.845336,3,187500.0,-185881.666646,-79150.231677,-99102.225793,-80428.438536,-80487.201272,187500.0,-187500.022352,-183680.779777,-75061.985858,187500.0,187500.0,-85387.821244,-85301.54351,187500.0,187500.0
1680230634.845362,3,187500.0,-183089.330267,-78959.906573,-99152.651328,-81303.375221,-80533.871714,187500.0,-187500.022352,-184133.00027,-66518.03154,187500.0,187500.0,-85437.263302,-84992.396533,187500.0,187500.0
1680230634.845383,3,187500.0,-187500.022352,-78986.080466,-99952.553207,-79387.093113,-80588.27586,187500.0,-187500.022352,-183880.380855,-71606.115592,187500.0,187500.0,-85296.268498,-85523.652795,187500.0,187500.0
1680230634.845404,3,187500.0,-182404.092837,-79165.743788,-98608.185185,-81587.04121,-80527.970854,187500.0,-187500.022352,-183561.041482,-71030.893449,187500.0,187500.0,-85460.866745,-85034.753088,187500.0,187500.0
1680230634.845424,3,187500.0,-186517.774942,-78927.183619,-100098.845374,-79570.377418,-80672.877213,187500.0,-187500.022352,-183759.144993,-67001.991511,187500.0,187500.0,-85369.112834,-85419.784238,187500.0,187500.0
1680230634.845477,3,187500.0,-185642.570036,-79191.157721,-99064.116068,-80323.921779,-80531.882409,187500.0,-187500.022352,-182954.83982,-74509.38368,187500.0,187500.0,-85436.97273,-85326.599816,187500.0,187500.0
1680230634.845499,3,187500.0,-182434.021823,-79027.095917,-99115.122749,-81225.72526,-80613.890959,187500.0,-187500.022352,-183564.193078,-65910.041739,187500.0,187500.0,-85476.624724,-84996.933937,187500.0,187500.0
1680230634.845519,3,187500.0,-187500.022352,-79052.040464,-100017.440321,-79146.051901,-80622.339919,187500.0,-187500.022352,-183042.548065,-71122.960284,187500.0,187500.0,-85369.626924,-85598.575842,187500.0,187500.0
1680230634.84554,3,187500.0,-182524.680498,-79145.806032,-98556.530304,-81518.488409,-80419.073155,187500.0,-187500.022352,-182784.608934,-71012.632073,187500.0,187500.0,-85477.317629,-85015.03885,187500.0,187500.0
1680230634.84556,3,187500.0,-185963.451679,-78882.748351,-99767.436059,-80041.082804,-80533.17881,187500.0,-187500.022352,-183524.541083,-66077.791581,187500.0,187500.0,-85291.619336,-85254.582495,187500.0,187500.0
1680230634.84558,3,187500.0,-186574.63778,-79053.381569,-99291.9474,-80225.194123,-80456.735844,187500.0,-187500.022352,-183024.085525,-72626.13745,187500.0,187500.0,-85352.684301,-85276.666019,187500.0,187500.0
1680230634.845602,3,187500.0,-184137.269454,-78956.598515,-98971.155163,-81255.855412,-80430.338434,187500.0,-187500.022352,-183182.693503,-68133.548574,187500.0,187500.0,-85318.597891,-84947.938913,187500.0,187500.0
1680230634.845622,3,187500.0,-187193.959915,-78929.083518,-99304.911411,-80599.719954,-80437.066309,187500.0,-187500.022352,-184148.847657,-69162.779351,187500.0,187500.0,-85252.369672,-85187.102579,187500.0,187500.0
1680230634.845642,3,187500.0,-183821.014621,-78960.37596,-98889.638351,-81596.719515,-80405.371535,187500.0,-187500.022352,-184221.40142,-68739.929049,187500.0,187500.0,-85282.611583,-84979.633686,187500.0,187500.0
1680230634.845663,3,187500.0,-186934.098534,-78780.064437,-99886.637913,-80000.715554,-80534.206991,187500.0,-187500.022352,-184417.649736,-67384.58632,187500.0,187500.0,-85210.214282,-85151.339787,187500.0,187500.0
1680230634.845798,3,187500.0,-186541.825419,-79039.970522,-98972.27275,-80742.480545,-80384.874986,187500.0,-187500.022352,-183933.019213,-74363.627954,187500.0,187500.0,-85273.469719,-85172.372779,187500.0,187500.0
1680230634.845817,3,187500.0,-184687.144719,-78785.406504,-99040.870254,-81699.470484,-80457.272286,187500.0,-187500.022352,-185416.191568,-66139.013009,187500.0,187500.0,-85213.701154,-84696.727657,187500.0,187500.0
1680230634.845835,3,187500.0,-187500.022352,-78935.789041,-99904.832233,-79563.448377,-80532.575313,187500.0,-187500.022352,-184677.578172,-72349.869889,187500.0,187500.0,-85220.518436,-85446.382814,187500.0,187500.0
1680230634.845852,3,187500.0,-184035.390202,-78997.748077,-98326.597908,-82478.473482,-80309.795476,187500.0,-187500.022352,-185320.12377,-70646.018761,187500.0,187500.0,-85347.252828,-84720.666375,187500.0,187500.0
1680230634.845869,3,187500.0,-187500.022352,-78795.956528,-100092.720996,-80065.312095,-80618.76364,187500.0,-187500.022352,-186186.700903,-66247.709542,187500.0,187500.0,-85188.577794,-85214.483465,187500.0,187500.0
1680230634.845886,3,187500.0,-186860.404832,-79050.297028,-98912.928869,-81188.755475,-80310.018994,187500.0,-187500.022352,-185254.431993,-74042.142813,187500.0,187500.0,-85326.599816,-85157.665331,187500.0,187500.0
1680230634.845904,3,187500.0,-185307.137407,-78741.485326,-99100.705874,-82067.268439,-80411.339451,187500.0,-187500.022352,-187215.954031,-65209.336902,187500.0,187500.0,-85173.579773,-84626.29731,187500.0,187500.0
1680230634.845921,3,187500.0,-187500.022352,-78939.700596,-99958.878751,-79878.362105,-80534.274046,187500.0,-187500.022352,-186466.254171,-71803.839124,187500.0,187500.0,-85173.915049,-85374.164328,187500.0,187500.0
1680230634.845937,3,187500.0,-185552.760727,-78930.871657,-98349.642557,-82898.954499,-80254.094929,187500.0,-187500.022352,-187079.362521,-70539.825623,187500.0,187500.0,-85276.17428,-84618.362441,187500.0,187500.0
1680230634.845954,3,187500.0,-187500.022352,-78701.565111,-100035.120551,-80475.556013,-80592.12036,187500.0,-187500.022352,-187500.022352,-66667.140027,187500.0,187500.0,-85068.124243,-85005.494655,187500.0,187500.0
1680230634.845971,3,187500.0,-187500.022352,-79008.208693,-98934.610061,-81558.878012,-80349.31336,187500.0,-187500.022352,-187486.879526,-74685.023687,187500.0,187500.0,-85260.192783,-84971.050617,187500.0,187500.0
1680230634.846044,3,187500.0,-186265.110822,-78704.426134,-99042.256062,-82477.467653,-80468.805786,187500.0,-187500.022352,-187500.022352,-66388.36907,187500.0,187500.0,-85077.556679,-84449.338549,187500.0,187500.0
1680230634.846061,3,187500.0,-187500.022352,-78898.99807,-99918.958535,-80211.358394,-80595.741343,187500.0,-187500.022352,-187500.022352,-72642.186003,187500.0,187500.0,-85178.698323,-85194.992744,187500.0,187500.0
1680230634.846078,3,187500.0,-186755.128116,-78898.439276,-98338.846664,-83225.491133,-80293.076371,187500.0,-187500.022352,-187500.022352,-71661.704381,187500.0,187500.0,-85179.234764,-84454.412395,187500.0,187500.0
1680230634.846094,3,187500.0,-187500.022352,-78752.03535,-100017.775597,-80802.830255,-80734.791545,187500.0,-187500.022352,-187500.022352,-67714.073385,187500.0,187500.0,-85061.776347,-84872.121796,187500.0,187500.0
1680230634.846111,3,187500.0,-187500.022352,-78979.956088,-98985.415576,-81826.741317,-80401.683498,187500.0,-187500.022352,-187500.022352,-75470.799264,187500.0,187500.0,-85275.928411,-84895.077037,187500.0,187500.0
1680230634.846129,3,187500.0,-187279.6118,-78708.561207,-99036.824588,-82836.369614,-80518.717232,187500.0,-187500.022352,-187500.022352,-67639.910297,187500.0,187500.0,-85015.061201,-84335.590522,187500.0,187500.0
1680230634.846146,3,187500.0,-187500.022352,-78923.361471,-99986.773728,-80516.571464,-80677.682838,187500.0,-187500.022352,-187500.022352,-73522.665921,187500.0,187500.0,-85202.7488,-85095.192205,187500.0,187500.0
1680230635.319152,3,187500.0,-187500.022352,-78871.907755,-98393.407273,-83583.521376,-80326.983968,187500.0,-187500.022352,-187500.022352,-72846.793872,187500.0,187500.0,-85168.617686,-84355.215353,187500.0,187500.0
1680230635.319208,3,187500.0,-187500.022352,-78730.354158,-99972.178039,-81198.053801,-80814.654328,187500.0,-187500.022352,-187500.022352,-68882.823751,187500.0,187500.0,-85001.516044,-84672.67718,187500.0,187500.0
1680230635.319247,3,187500.0,-187500.022352,-79005.057097,-99049.565083,-82116.464629,-80568.136939,187500.0,-187500.022352,-187500.022352,-76370.188757,187500.0,187500.0,-85302.348173,-84752.651722,187500.0,187500.0
1680230635.319285,3,187500.0,-187500.022352,-78715.177323,-99016.328039,-83229.469744,-80688.679896,187500.0,-187500.022352,-187500.022352,-68778.821084,187500.0,187500.0,-85055.696673,-84191.757046,187500.0,187500.0
1680230635.319452,3,187500.0,-187500.022352,-79057.6284,-100055.103011,-80765.927525,-80924.557856,187500.0,-187500.022352,-187500.022352,-73700.652862,187500.0,187500.0,-85225.368765,-85003.304184,187500.0,187500.0
1680230635.319474,3,187500.0,-187500.022352,-78903.893102,-98506.440044,-83836.788992,-80474.661943,187500.0,-187500.022352,-187500.022352,-72523.520592,187500.0,187500.0,-85172.886869,-84240.416794,187500.0,187500.0
1680230635.319495,3,187500.0,-187500.022352,-78926.133087,-100045.245891,-81454.025978,-81107.32807,187500.0,-187500.022352,-187500.022352,-67594.469201,187500.0,187500.0,-85044.76667,-84567.959257,187500.0,187500.0
1680230635.319516,3,187500.0,-187500.022352,-79083.601127,-99169.929227,-82291.299974,-80599.138808,187500.0,-187500.022352,-187500.022352,-73151.291686,187500.0,187500.0,-85454.451794,-84781.016085,187500.0,187500.0
1680230635.319538,3,187500.0,-187500.022352,-78809.255816,-98980.811117,-83414.56454,-80733.986882,187500.0,-187500.022352,-187500.022352,-64265.042754,187500.0,187500.0,-85004.980565,-84061.893411,187500.0,187500.0
1680230635.319559,3,187500.0,-187500.022352,-79237.314074,-100173.768422,-80837.542515,-81082.85291,187500.0,-187500.022352,-187500.022352,-67083.195398,187500.0,187500.0,-85342.067223,-84932.292692,187500.0,187500.0
1680230635.31958,3,187500.0,-187500.022352,-78972.691771,-98391.283857,-83892.400133,-80444.576495,187500.0,-187500.022352,-187500.022352,-64903.676796,187500.0,187500.0,-85202.7488,-84233.621864,187500.0,187500.0
1680230635.3196,3,187500.0,-187500.022352,-79009.616853,-99791.330074,-81456.238801,-81070.380636,187500.0,-187500.022352,-187500.022352,-59790.536438,187500.0,187500.0,-85164.147337,-84445.851677,187500.0,187500.0
1680230635.319621,3,187500.0,-187500.022352,-79199.070239,-99045.184141,-82171.025237,-80578.038761,187500.0,-187500.022352,-187500.022352,-65038.144891,187500.0,187500.0,-85517.662527,-84744.895666,187500.0,187500.0
1680230635.319779,3,187500.0,-187500.022352,-78853.936953,-98471.951303,-83550.77607,-80610.404087,187500.0,-187500.022352,-187500.022352,-57316.466548,187500.0,187500.0,-85030.819181,-83951.073462,187500.0,187500.0
1680230635.31987,3,187500.0,-187500.022352,-79241.940885,-99584.21881,-80920.825114,-80959.091301,187500.0,-187500.022352,-187500.022352,-60994.669616,187500.0,187500.0,-85400.07,-84807.122923,187500.0,187500.0
1680230635.319888,3,187500.0,-187500.022352,-79041.579848,-97878.847763,-84081.115911,-80322.379508,187500.0,-187500.022352,-187500.022352,-60043.222909,187500.0,187500.0,-85294.703876,-84178.234241,187500.0,187500.0
1680230635.319905,3,187500.0,-187500.022352,-79016.210618,-99075.269589,-81823.410907,-80915.460696,187500.0,-187500.022352,-187500.022352,-55665.521999,187500.0,187500.0,-85072.013446,-84378.662333,187500.0,187500.0
1680230635.319922,3,187500.0,-187500.022352,-79265.32081,-98443.653994,-82513.655128,-80514.693918,187500.0,-187500.022352,-187500.022352,-61357.214911,187500.0,187500.0,-85480.603335,-84711.278643,187500.0,187500.0
1680230635.31994,3,187500.0,-187500.022352,-78890.102075,-97863.42506,-84010.685564,-80559.598572,187500.0,-187500.022352,-187500.022352,-54336.330812,187500.0,187500.0,-84934.214942,-83909.40981,187500.0,187500.0
1680230635.319957,3,187500.0,-187500.022352,-79347.083491,-99109.24424,-81387.238966,-80919.372251,187500.0,-187500.022352,-187500.022352,-57931.675962,187500.0,187500.0,-85334.244112,-84889.869081,187500.0,187500.0
1680230635.319974,3,187500.0,-187500.022352,-78928.010634,-97464.826401,-84533.895199,-80142.895,187500.0,-187500.022352,-187500.022352,-57609.900249,187500.0,187500.0,-85176.910183,-84105.993403,187500.0,187500.0
1680230635.319991,3,187500.0,-187500.022352,-79101.974261,-98703.470672,-82323.106506,-80890.225576,187500.0,-187500.022352,-187500.022352,-53664.660891,187500.0,187500.0,-85043.090289,-84245.960026,187500.0,187500.0
1680230635.320008,3,187500.0,-187500.022352,-79169.990619,-98207.127834,-82901.815522,-80441.961341,187500.0,-187500.022352,-187500.022352,-59984.124897,187500.0,187500.0,-85466.655846,-84602.447999,187500.0,187500.0
1680230635.320025,3,187500.0,-187500.022352,-78792.380249,-97622.853234,-84407.876063,-80480.115769,187500.0,-187500.022352,-187500.022352,-54092.138003,187500.0,187500.0,-84828.133563,-83707.417096,187500.0,187500.0
